XLabel,Wavenumber
YLabel,%Transmittance
FileType,%Transmittance
DisplayDirection,20300
PeakDirection,20311
549.711267,78.516416
550.675673,76.735784
551.640078,73.631144
552.604484,70.917919
553.568890,69.835918
554.533295,70.609739
555.497701,72.887270
556.462107,76.256877
557.426513,79.694552
558.390918,82.292758
559.355324,83.797763
560.319730,84.610891
561.284136,85.924054
562.248541,87.089130
563.212947,87.271681
564.177353,88.018354
565.141758,89.299018
566.106164,89.645936
567.070570,89.379032
568.034976,89.572194
568.999381,90.061703
569.963787,90.153170
570.928193,90.291559
571.892599,90.393458
572.857004,90.319660
573.821410,90.909472
574.785816,91.233939
575.750222,90.942023
576.714627,91.283854
577.679033,91.680053
578.643439,91.740488
579.607844,92.048523
580.572250,92.229439
581.536656,92.089631
582.501062,91.949376
583.465467,91.850813
584.429873,91.779555
585.394279,91.835080
586.358685,91.990090
587.323090,91.968284
588.287496,91.694213
589.251902,91.531676
590.216307,91.646397
591.180713,91.680439
592.145119,91.419786
593.109525,91.154832
594.073930,91.018200
595.038336,90.876451
596.002742,90.810717
596.967148,90.811743
597.931553,90.719841
598.895959,90.531173
599.860365,90.246733
600.824771,89.942691
601.789176,89.658921
602.753582,89.369511
603.717988,89.126308
604.682393,88.765656
605.646799,88.210501
606.611205,87.540673
607.575611,86.719011
608.540016,85.937346
609.504422,85.316712
610.468828,84.663737
611.433234,83.884141
612.397639,83.099812
613.362045,82.358488
614.326451,81.391793
615.290857,80.212033
616.255262,79.128689
617.219668,78.048246
618.184074,76.861161
619.148479,75.674912
620.112885,74.524518
621.077291,73.330605
622.041697,72.001396
623.006102,70.788088
623.970508,69.959558
624.934914,69.463840
625.899320,69.373683
626.863725,69.754635
627.828131,70.453066
628.792537,71.236565
629.756942,71.830420
630.721348,72.187234
631.685754,72.334297
632.650160,72.133720
633.614565,71.610244
634.578971,70.891821
635.543377,70.050103
636.507783,69.244166
637.472188,68.674585
638.436594,68.512225
639.401000,68.885141
640.365406,69.790364
641.329811,71.113347
642.294217,72.725956
643.258623,74.451284
644.223028,76.175314
645.187434,77.843101
646.151840,79.355950
647.116246,80.707934
648.080651,81.895341
649.045057,82.903290
650.009463,83.777347
650.973869,84.525072
651.938274,85.162925
652.902680,85.762327
653.867086,86.354155
654.831491,86.847238
655.795897,87.195926
656.760303,87.509220
657.724709,87.825480
658.689114,88.126970
659.653520,88.448529
660.617926,88.797047
661.582332,89.158669
662.546737,89.516644
663.511143,89.843874
664.475549,90.169085
665.439955,90.536137
666.404360,90.892153
667.368766,91.228568
668.333172,91.571541
669.297577,91.811307
670.261983,91.979452
671.226389,92.206023
672.190795,92.409135
673.155200,92.549926
674.119606,92.728622
675.084012,92.921613
676.048418,93.061900
677.012823,93.182374
677.977229,93.324087
678.941635,93.477705
679.906040,93.629997
680.870446,93.759431
681.834852,93.862145
682.799258,93.955824
683.763663,94.020691
684.728069,94.049983
685.692475,94.069287
686.656881,94.082038
687.621286,94.047976
688.585692,93.981464
689.550098,93.955911
690.514504,93.940319
691.478909,93.902745
692.443315,93.862395
693.407721,93.779313
694.372126,93.651330
695.336532,93.539558
696.300938,93.459302
697.265344,93.360582
698.229749,93.235090
699.194155,93.140910
700.158561,93.093394
701.122967,93.020274
702.087372,92.899863
703.051778,92.852248
704.016184,92.882315
704.980590,92.890845
705.944995,92.885267
706.909401,92.857984
707.873807,92.808708
708.838212,92.786286
709.802618,92.818593
710.767024,92.866154
711.731430,92.836244
712.695835,92.757506
713.660241,92.677553
714.624647,92.568428
715.589053,92.429598
716.553458,92.242867
717.517864,92.025474
718.482270,91.857649
719.446675,91.813189
720.411081,91.886153
721.375487,91.980234
722.339893,92.080640
723.304298,92.231963
724.268704,92.415642
725.233110,92.615502
726.197516,92.838607
727.161921,93.082398
728.126327,93.335927
729.090733,93.563494
730.055139,93.772275
731.019544,94.007734
731.983950,94.200503
732.948356,94.282407
733.912761,94.258386
734.877167,94.113874
735.841573,93.873549
736.805979,93.562646
737.770384,93.301362
738.734790,93.185346
739.699196,93.069780
740.663602,92.959471
741.628007,92.969297
742.592413,93.058199
743.556819,93.220225
744.521224,93.456035
745.485630,93.724031
746.450036,94.010958
747.414442,94.320694
748.378847,94.645741
749.343253,94.955685
750.307659,95.217258
751.272065,95.395448
752.236470,95.507819
753.200876,95.597855
754.165282,95.660763
755.129688,95.679868
756.094093,95.673901
757.058499,95.686824
758.022905,95.703547
758.987310,95.679208
759.951716,95.622638
760.916122,95.540391
761.880528,95.421588
762.844933,95.300819
763.809339,95.199770
764.773745,95.076997
765.738151,94.930481
766.702556,94.777940
767.666962,94.614987
768.631368,94.476516
769.595773,94.377408
770.560179,94.292457
771.524585,94.227401
772.488991,94.210710
773.453396,94.226708
774.417802,94.237312
775.382208,94.259271
776.346614,94.296318
777.311019,94.309263
778.275425,94.296741
779.239831,94.294166
780.204237,94.322925
781.168642,94.356162
782.133048,94.363748
783.097454,94.363465
784.061859,94.391691
785.026265,94.455020
785.990671,94.518432
786.955077,94.588483
787.919482,94.692430
788.883888,94.794961
789.848294,94.908263
790.812700,95.070125
791.777105,95.250510
792.741511,95.441083
793.705917,95.629386
794.670323,95.789015
795.634728,95.953737
796.599134,96.133532
797.563540,96.291897
798.527945,96.420494
799.492351,96.530500
800.456757,96.623473
801.421163,96.693268
802.385568,96.749388
803.349974,96.803635
804.314380,96.846592
805.278786,96.884968
806.243191,96.923809
807.207597,96.948631
808.172003,96.977729
809.136408,97.017166
810.100814,97.043688
811.065220,97.062868
812.029626,97.071268
812.994031,97.073539
813.958437,97.109521
814.922843,97.163888
815.887249,97.191071
816.851654,97.185766
817.816060,97.161859
818.780466,97.155518
819.744872,97.164375
820.709277,97.154520
821.673683,97.155465
822.638089,97.171893
823.602494,97.185163
824.566900,97.208565
825.531306,97.212353
826.495712,97.198575
827.460117,97.207547
828.424523,97.218983
829.388929,97.216027
830.353335,97.218289
831.317740,97.229814
832.282146,97.230258
833.246552,97.220071
834.210957,97.221939
835.175363,97.228978
836.139769,97.224396
837.104175,97.216556
838.068580,97.221880
839.032986,97.231211
839.997392,97.221432
840.961798,97.198647
841.926203,97.179565
842.890609,97.171615
843.855015,97.167436
844.819421,97.147472
845.783826,97.128492
846.748232,97.125733
847.712638,97.109214
848.677043,97.076697
849.641449,97.060660
850.605855,97.065523
851.570261,97.062910
852.534666,97.044472
853.499072,97.030500
854.463478,97.017573
855.427884,97.003388
856.392289,97.002069
857.356695,97.012753
858.321101,97.028263
859.285507,97.035261
860.249912,97.041174
861.214318,97.055911
862.178724,97.067269
863.143129,97.094167
864.107535,97.129876
865.071941,97.132626
866.036347,97.126985
867.000752,97.142081
867.965158,97.148642
868.929564,97.136033
869.893970,97.133450
870.858375,97.150373
871.822781,97.162678
872.787187,97.159320
873.751592,97.151646
874.715998,97.143179
875.680404,97.135085
876.644810,97.132883
877.609215,97.137803
878.573621,97.143186
879.538027,97.137612
880.502433,97.135353
881.466838,97.152953
882.431244,97.172125
883.395650,97.182846
884.360056,97.185591
885.324461,97.183268
886.288867,97.187154
887.253273,97.192191
888.217678,97.201952
889.182084,97.214772
890.146490,97.216956
891.110896,97.224201
892.075301,97.228868
893.039707,97.214693
894.004113,97.208814
894.968519,97.218226
895.932924,97.228967
896.897330,97.241637
897.861736,97.249421
898.826141,97.246285
899.790547,97.245736
900.754953,97.250299
901.719359,97.242822
902.683764,97.235828
903.648170,97.250224
904.612576,97.263393
905.576982,97.258404
906.541387,97.254948
907.505793,97.263274
908.470199,97.272764
909.434605,97.273362
910.399010,97.266228
911.363416,97.266306
912.327822,97.268762
913.292227,97.253412
914.256633,97.237565
915.221039,97.236925
916.185445,97.233891
917.149850,97.225619
918.114256,97.222437
919.078662,97.219323
920.043068,97.209259
921.007473,97.201193
921.971879,97.201567
922.936285,97.206282
923.900690,97.204025
924.865096,97.184679
925.829502,97.170775
926.793908,97.170968
927.758313,97.155394
928.722719,97.127847
929.687125,97.110953
930.651531,97.096824
931.615936,97.071021
932.580342,97.047400
933.544748,97.047620
934.509154,97.051914
935.473559,97.037593
936.437965,97.026125
937.402371,97.030269
938.366776,97.033117
939.331182,97.029455
940.295588,97.032275
941.259994,97.051989
942.224399,97.073308
943.188805,97.075848
944.153211,97.073032
945.117617,97.073042
946.082022,97.067933
947.046428,97.070574
948.010834,97.083993
948.975240,97.090524
949.939645,97.086047
950.904051,97.078837
951.868457,97.073954
952.832862,97.069214
953.797268,97.060036
954.761674,97.048686
955.726080,97.039513
956.690485,97.030658
957.654891,97.022741
958.619297,97.007828
959.583703,96.980120
960.548108,96.960315
961.512514,96.946751
962.476920,96.925421
963.441325,96.910941
964.405731,96.898590
965.370137,96.877476
966.334543,96.860914
967.298948,96.848765
968.263354,96.830695
969.227760,96.807558
970.192166,96.785592
971.156571,96.766387
972.120977,96.743354
973.085383,96.709282
974.049789,96.666952
975.014194,96.631873
975.978600,96.604753
976.943006,96.556437
977.907411,96.481976
978.871817,96.417345
979.836223,96.367800
980.800629,96.311809
981.765034,96.265041
982.729440,96.235513
983.693846,96.202306
984.658252,96.175553
985.622657,96.159291
986.587063,96.139741
987.551469,96.131688
988.515874,96.131321
989.480280,96.119376
990.444686,96.100586
991.409092,96.077830
992.373497,96.053184
993.337903,96.026387
994.302309,95.993823
995.266715,95.964351
996.231120,95.941298
997.195526,95.914725
998.159932,95.880664
999.124338,95.847631
1000.088743,95.821848
1001.053149,95.805960
1002.017555,95.797920
1002.981960,95.781803
1003.946366,95.756773
1004.910772,95.741993
1005.875178,95.733196
1006.839583,95.709088
1007.803989,95.675965
1008.768395,95.654658
1009.732801,95.637452
1010.697206,95.606339
1011.661612,95.570038
1012.626018,95.545249
1013.590423,95.524919
1014.554829,95.501246
1015.519235,95.481843
1016.483641,95.456444
1017.448046,95.417583
1018.412452,95.379234
1019.376858,95.341658
1020.341264,95.305979
1021.305669,95.273889
1022.270075,95.234850
1023.234481,95.189751
1024.198887,95.143905
1025.163292,95.102168
1026.127698,95.059958
1027.092104,95.006038
1028.056509,94.950744
1029.020915,94.906503
1029.985321,94.875195
1030.949727,94.849893
1031.914132,94.821116
1032.878538,94.792386
1033.842944,94.761933
1034.807350,94.733667
1035.771755,94.719703
1036.736161,94.706984
1037.700567,94.683448
1038.664973,94.652792
1039.629378,94.613927
1040.593784,94.567072
1041.558190,94.508371
1042.522595,94.435935
1043.487001,94.355231
1044.451407,94.264875
1045.415813,94.174175
1046.380218,94.083940
1047.344624,93.985467
1048.309030,93.892152
1049.273436,93.807940
1050.237841,93.734865
1051.202247,93.672813
1052.166653,93.614018
1053.131058,93.568246
1054.095464,93.533626
1055.059870,93.507822
1056.024276,93.479915
1056.988681,93.436782
1057.953087,93.399381
1058.917493,93.366757
1059.881899,93.333552
1060.846304,93.306720
1061.810710,93.273269
1062.775116,93.228129
1063.739522,93.175723
1064.703927,93.124375
1065.668333,93.063920
1066.632739,92.979909
1067.597144,92.895068
1068.561550,92.818200
1069.525956,92.727891
1070.490362,92.618515
1071.454767,92.498636
1072.419173,92.369724
1073.383579,92.231091
1074.347985,92.089493
1075.312390,91.949988
1076.276796,91.804052
1077.241202,91.644225
1078.205607,91.478072
1079.170013,91.303608
1080.134419,91.116523
1081.098825,90.926305
1082.063230,90.734284
1083.027636,90.528920
1083.992042,90.303243
1084.956448,90.071134
1085.920853,89.844113
1086.885259,89.609123
1087.849665,89.358560
1088.814071,89.103701
1089.778476,88.846947
1090.742882,88.576359
1091.707288,88.293496
1092.671693,87.994968
1093.636099,87.675363
1094.600505,87.346121
1095.564911,86.999753
1096.529316,86.629103
1097.493722,86.242040
1098.458128,85.836238
1099.422534,85.404928
1100.386939,84.945542
1101.351345,84.463379
1102.315751,83.956439
1103.280156,83.422277
1104.244562,82.857133
1105.208968,82.261572
1106.173374,81.646129
1107.137779,80.992562
1108.102185,80.292694
1109.066591,79.559786
1110.030997,78.790261
1110.995402,77.987926
1111.959808,77.149869
1112.924214,76.274405
1113.888620,75.365652
1114.853025,74.401504
1115.817431,73.363495
1116.781837,72.266891
1117.746242,71.113873
1118.710648,69.877360
1119.675054,68.552879
1120.639460,67.152588
1121.603865,65.670370
1122.568271,64.094417
1123.532677,62.398211
1124.497083,60.550740
1125.461488,58.534303
1126.425894,56.333901
1127.390300,53.964786
1128.354706,51.507320
1129.319111,49.006194
1130.283517,46.492836
1131.247923,44.007617
1132.212328,41.556484
1133.176734,39.117638
1134.141140,36.700325
1135.105546,34.354473
1136.069951,32.107662
1137.034357,29.920224
1137.998763,27.769201
1138.963169,25.693149
1139.927574,23.733915
1140.891980,21.947399
1141.856386,20.389554
1142.820791,19.087465
1143.785197,18.058629
1144.749603,17.344111
1145.714009,16.981713
1146.678414,17.016344
1147.642820,17.478345
1148.607226,18.375017
1149.571632,19.713744
1150.536037,21.485913
1151.500443,23.622033
1152.464849,26.006067
1153.429255,28.533271
1154.393660,31.116421
1155.358066,33.681090
1156.322472,36.185129
1157.286877,38.606150
1158.251283,40.907164
1159.215689,43.074833
1160.180095,45.105092
1161.144500,47.002984
1162.108906,48.767956
1163.073312,50.385931
1164.037718,51.852585
1165.002123,53.176493
1165.966529,54.350661
1166.930935,55.378809
1167.895340,56.275568
1168.859746,57.055896
1169.824152,57.761690
1170.788558,58.422979
1171.752963,59.043247
1172.717369,59.624599
1173.681775,60.143800
1174.646181,60.547245
1175.610586,60.784804
1176.574992,60.818183
1177.539398,60.613822
1178.503804,60.141640
1179.468209,59.412529
1180.432615,58.460598
1181.397021,57.306077
1182.361426,55.987174
1183.325832,54.548638
1184.290238,53.004886
1185.254644,51.371901
1186.219049,49.688788
1187.183455,47.982053
1188.147861,46.264347
1189.112267,44.565928
1190.076672,42.912334
1191.041078,41.313915
1192.005484,39.790529
1192.969889,38.349812
1193.934295,36.990938
1194.898701,35.736789
1195.863107,34.607136
1196.827512,33.602664
1197.791918,32.748189
1198.756324,32.081403
1199.720730,31.615126
1200.685135,31.370817
1201.649541,31.384875
1202.613947,31.671371
1203.578353,32.232495
1204.542758,33.063441
1205.507164,34.130208
1206.471570,35.379794
1207.435975,36.770892
1208.400381,38.255191
1209.364787,39.782667
1210.329193,41.323778
1211.293598,42.856240
1212.258004,44.355968
1213.222410,45.808817
1214.186816,47.209340
1215.151221,48.559017
1216.115627,49.867776
1217.080033,51.136934
1218.044439,52.359137
1219.008844,53.539981
1219.973250,54.690130
1220.937656,55.804213
1221.902061,56.879028
1222.866467,57.919887
1223.830873,58.930954
1224.795279,59.915372
1225.759684,60.873639
1226.724090,61.826291
1227.688496,62.778912
1228.652902,63.709194
1229.617307,64.631669
1230.581713,65.557739
1231.546119,66.474183
1232.510524,67.384295
1233.474930,68.287127
1234.439336,69.181669
1235.403742,70.078311
1236.368147,70.973553
1237.332553,71.855193
1238.296959,72.725337
1239.261365,73.590221
1240.225770,74.440116
1241.190176,75.272144
1242.154582,76.096075
1243.118988,76.913540
1244.083393,77.721297
1245.047799,78.513495
1246.012205,79.288272
1246.976610,80.054424
1247.941016,80.810300
1248.905422,81.553540
1249.869828,82.298163
1250.834233,83.044824
1251.798639,83.789573
1252.763045,84.543295
1253.727451,85.308196
1254.691856,86.089409
1255.656262,86.895746
1256.620668,87.724050
1257.585073,88.577052
1258.549479,89.444601
1259.513885,90.300204
1260.478291,91.126115
1261.442696,91.901822
1262.407102,92.602168
1263.371508,93.209317
1264.335914,93.733824
1265.300319,94.188750
1266.264725,94.563247
1267.229131,94.877398
1268.193537,95.157605
1269.157942,95.393359
1270.122348,95.588055
1271.086754,95.763109
1272.051159,95.923846
1273.015565,96.062225
1273.979971,96.178678
1274.944377,96.280978
1275.908782,96.373300
1276.873188,96.461284
1277.837594,96.537800
1278.802000,96.591053
1279.766405,96.633878
1280.730811,96.679122
1281.695217,96.718145
1282.659622,96.750342
1283.624028,96.784552
1284.588434,96.817502
1285.552840,96.848128
1286.517245,96.876055
1287.481651,96.896816
1288.446057,96.917962
1289.410463,96.947945
1290.374868,96.982063
1291.339274,97.010115
1292.303680,97.035703
1293.268086,97.068645
1294.232491,97.105281
1295.196897,97.143313
1296.161303,97.184216
1297.125708,97.227962
1298.090114,97.272954
1299.054520,97.320054
1300.018926,97.376720
1300.983331,97.436378
1301.947737,97.497941
1302.912143,97.571342
1303.876549,97.651720
1304.840954,97.745500
1305.805360,97.850254
1306.769766,97.943862
1307.734172,98.027124
1308.698577,98.104016
1309.662983,98.174285
1310.627389,98.237705
1311.591794,98.285644
1312.556200,98.324343
1313.520606,98.362604
1314.485012,98.397396
1315.449417,98.433883
1316.413823,98.475640
1317.378229,98.510216
1318.342635,98.538161
1319.307040,98.572723
1320.271446,98.605463
1321.235852,98.632832
1322.200257,98.659629
1323.164663,98.681289
1324.129069,98.703851
1325.093475,98.723721
1326.057880,98.739052
1327.022286,98.758641
1327.986692,98.772030
1328.951098,98.776443
1329.915503,98.779514
1330.879909,98.785393
1331.844315,98.792898
1332.808721,98.794156
1333.773126,98.797283
1334.737532,98.807545
1335.701938,98.818198
1336.666343,98.828484
1337.630749,98.838960
1338.595155,98.853080
1339.559561,98.870132
1340.523966,98.884904
1341.488372,98.898430
1342.452778,98.914449
1343.417184,98.929771
1344.381589,98.938674
1345.345995,98.944185
1346.310401,98.947345
1347.274806,98.952487
1348.239212,98.965104
1349.203618,98.974186
1350.168024,98.975775
1351.132429,98.975714
1352.096835,98.975607
1353.061241,98.980290
1354.025647,98.986376
1354.990052,98.985949
1355.954458,98.986137
1356.918864,98.991980
1357.883270,98.992951
1358.847675,98.988260
1359.812081,98.987379
1360.776487,98.986395
1361.740892,98.985822
1362.705298,98.993779
1363.669704,99.000053
1364.634110,98.999797
1365.598515,99.003465
1366.562921,99.005698
1367.527327,99.004019
1368.491733,99.009904
1369.456138,99.016220
1370.420544,99.019274
1371.384950,99.032454
1372.349355,99.044356
1373.313761,99.045135
1374.278167,99.054700
1375.242573,99.074662
1376.206978,99.091100
1377.171384,99.103519
1378.135790,99.112741
1379.100196,99.123038
1380.064601,99.138957
1381.029007,99.153874
1381.993413,99.158863
1382.957819,99.157558
1383.922224,99.164678
1384.886630,99.175717
1385.851036,99.178271
1386.815441,99.182178
1387.779847,99.185885
1388.744253,99.178952
1389.708659,99.173785
1390.673064,99.174258
1391.637470,99.168191
1392.601876,99.157703
1393.566282,99.155628
1394.530687,99.160152
1395.495093,99.155957
1396.459499,99.143829
1397.423905,99.134884
1398.388310,99.127364
1399.352716,99.118062
1400.317122,99.109561
1401.281527,99.099686
1402.245933,99.083730
1403.210339,99.067683
1404.174745,99.062694
1405.139150,99.063457
1406.103556,99.055492
1407.067962,99.040596
1408.032368,99.031808
1408.996773,99.029000
1409.961179,99.023942
1410.925585,99.017785
1411.889990,99.010236
1412.854396,99.000406
1413.818802,98.991993
1414.783208,98.986204
1415.747613,98.979341
1416.712019,98.962310
1417.676425,98.947539
1418.640831,98.949435
1419.605236,98.945758
1420.569642,98.928664
1421.534048,98.912035
1422.498454,98.901246
1423.462859,98.904107
1424.427265,98.906965
1425.391671,98.895636
1426.356076,98.884394
1427.320482,98.880307
1428.284888,98.882896
1429.249294,98.887873
1430.213699,98.882990
1431.178105,98.874970
1432.142511,98.878777
1433.106917,98.889112
1434.071322,98.894276
1435.035728,98.897496
1436.000134,98.906377
1436.964539,98.915350
1437.928945,98.917824
1438.893351,98.917895
1439.857757,98.916486
1440.822162,98.910843
1441.786568,98.907141
1442.750974,98.907657
1443.715380,98.901443
1444.679785,98.890897
1445.644191,98.885931
1446.608597,98.885120
1447.573003,98.883559
1448.537408,98.873174
1449.501814,98.863448
1450.466220,98.864241
1451.430625,98.861929
1452.395031,98.862506
1453.359437,98.869465
1454.323843,98.866922
1455.288248,98.867386
1456.252654,98.884148
1457.217060,98.901255
1458.181466,98.905515
1459.145871,98.909787
1460.110277,98.922135
1461.074683,98.932733
1462.039089,98.943813
1463.003494,98.956869
1463.967900,98.971748
1464.932306,98.992427
1465.896711,99.005852
1466.861117,99.017652
1467.825523,99.033222
1468.789929,99.032416
1469.754334,99.027614
1470.718740,99.041125
1471.683146,99.064682
1472.647552,99.084846
1473.611957,99.095307
1474.576363,99.106517
1475.540769,99.124339
1476.505174,99.133275
1477.469580,99.138424
1478.433986,99.151511
1479.398392,99.159369
1480.362797,99.163008
1481.327203,99.170485
1482.291609,99.176607
1483.256015,99.186107
1484.220420,99.196855
1485.184826,99.200308
1486.149232,99.200838
1487.113638,99.200651
1488.078043,99.200680
1489.042449,99.201589
1490.006855,99.207530
1490.971260,99.216703
1491.935666,99.217507
1492.900072,99.218722
1493.864478,99.216202
1494.828883,99.204118
1495.793289,99.206654
1496.757695,99.213652
1497.722101,99.207364
1498.686506,99.201448
1499.650912,99.194081
1500.615318,99.183572
1501.579723,99.176354
1502.544129,99.168029
1503.508535,99.155385
1504.472941,99.144836
1505.437346,99.137285
1506.401752,99.129442
1507.366158,99.123573
1508.330564,99.118988
1509.294969,99.116872
1510.259375,99.107900
1511.223781,99.088913
1512.188187,99.075452
1513.152592,99.058322
1514.116998,99.037574
1515.081404,99.029736
1516.045809,99.026652
1517.010215,99.026233
1517.974621,99.018049
1518.939027,98.996167
1519.903432,98.990412
1520.867838,98.995195
1521.832244,98.984981
1522.796650,98.971140
1523.761055,98.962582
1524.725461,98.958486
1525.689867,98.949197
1526.654272,98.930916
1527.618678,98.920598
1528.583084,98.917433
1529.547490,98.908728
1530.511895,98.893612
1531.476301,98.883331
1532.440707,98.882902
1533.405113,98.876085
1534.369518,98.862187
1535.333924,98.851323
1536.298330,98.837431
1537.262736,98.823229
1538.227141,98.818697
1539.191547,98.817949
1540.155953,98.810233
1541.120358,98.804986
1542.084764,98.799141
1543.049170,98.781016
1544.013576,98.773842
1544.977981,98.784038
1545.942387,98.793528
1546.906793,98.798948
1547.871199,98.794107
1548.835604,98.791597
1549.800010,98.810246
1550.764416,98.831551
1551.728822,98.844846
1552.693227,98.862411
1553.657633,98.886299
1554.622039,98.906760
1555.586444,98.919922
1556.550850,98.937943
1557.515256,98.967331
1558.479662,98.994701
1559.444067,99.008948
1560.408473,99.019317
1561.372879,99.034008
1562.337285,99.046276
1563.301690,99.056337
1564.266096,99.075323
1565.230502,99.098485
1566.194907,99.109643
1567.159313,99.109525
1568.123719,99.110757
1569.088125,99.121189
1570.052530,99.138171
1571.016936,99.146423
1571.981342,99.142648
1572.945748,99.139315
1573.910153,99.139613
1574.874559,99.148451
1575.838965,99.163162
1576.803371,99.166123
1577.767776,99.167947
1578.732182,99.177286
1579.696588,99.182325
1580.660993,99.179785
1581.625399,99.173606
1582.589805,99.172986
1583.554211,99.177446
1584.518616,99.184810
1585.483022,99.192456
1586.447428,99.193039
1587.411834,99.196911
1588.376239,99.194608
1589.340645,99.179589
1590.305051,99.183096
1591.269456,99.195996
1592.233862,99.191596
1593.198268,99.188168
1594.162674,99.193991
1595.127079,99.197149
1596.091485,99.201152
1597.055891,99.201319
1598.020297,99.193329
1598.984702,99.189829
1599.949108,99.188510
1600.913514,99.182324
1601.877920,99.175291
1602.842325,99.175188
1603.806731,99.181884
1604.771137,99.177199
1605.735542,99.160299
1606.699948,99.153544
1607.664354,99.161263
1608.628760,99.164874
1609.593165,99.158336
1610.557571,99.153566
1611.521977,99.149974
1612.486383,99.148640
1613.450788,99.146826
1614.415194,99.127972
1615.379600,99.106505
1616.344005,99.100181
1617.308411,99.098735
1618.272817,99.092403
1619.237223,99.079706
1620.201628,99.062609
1621.166034,99.039231
1622.130440,99.021676
1623.094846,99.024285
1624.059251,99.019933
1625.023657,98.994905
1625.988063,98.973939
1626.952469,98.959970
1627.916874,98.943089
1628.881280,98.931296
1629.845686,98.917937
1630.810091,98.892713
1631.774497,98.878320
1632.738903,98.867545
1633.703309,98.841101
1634.667714,98.833496
1635.632120,98.843590
1636.596526,98.830539
1637.560932,98.806869
1638.525337,98.792293
1639.489743,98.789362
1640.454149,98.786036
1641.418555,98.762292
1642.382960,98.743489
1643.347366,98.742703
1644.311772,98.730199
1645.276177,98.723439
1646.240583,98.731360
1647.204989,98.723750
1648.169395,98.717231
1649.133800,98.713394
1650.098206,98.695046
1651.062612,98.692302
1652.027018,98.717448
1652.991423,98.736388
1653.955829,98.731250
1654.920235,98.721465
1655.884640,98.719060
1656.849046,98.721907
1657.813452,98.721632
1658.777858,98.721876
1659.742263,98.735558
1660.706669,98.749135
1661.671075,98.758228
1662.635481,98.769359
1663.599886,98.772340
1664.564292,98.783105
1665.528698,98.800786
1666.493104,98.806555
1667.457509,98.819580
1668.421915,98.842467
1669.386321,98.859217
1670.350726,98.874162
1671.315132,98.894626
1672.279538,98.912991
1673.243944,98.919752
1674.208349,98.929218
1675.172755,98.941390
1676.137161,98.939272
1677.101567,98.938465
1678.065972,98.956496
1679.030378,98.979716
1679.994784,98.985725
1680.959189,98.979956
1681.923595,98.981700
1682.888001,98.999352
1683.852407,99.029264
1684.816812,99.043782
1685.781218,99.038500
1686.745624,99.045213
1687.710030,99.064018
1688.674435,99.077959
1689.638841,99.085550
1690.603247,99.093307
1691.567653,99.108554
1692.532058,99.120653
1693.496464,99.121288
1694.460870,99.138878
1695.425275,99.171074
1696.389681,99.183180
1697.354087,99.185121
1698.318493,99.184748
1699.282898,99.187507
1700.247304,99.202328
1701.211710,99.212790
1702.176116,99.226420
1703.140521,99.240676
1704.104927,99.242444
1705.069333,99.248303
1706.033738,99.253694
1706.998144,99.250492
1707.962550,99.260582
1708.926956,99.283753
1709.891361,99.295143
1710.855767,99.294479
1711.820173,99.291150
1712.784579,99.289051
1713.748984,99.294267
1714.713390,99.291429
1715.677796,99.288054
1716.642202,99.311471
1717.606607,99.329706
1718.571013,99.314262
1719.535419,99.302204
1720.499824,99.309161
1721.464230,99.315032
1722.428636,99.318343
1723.393042,99.315129
1724.357447,99.296501
1725.321853,99.285936
1726.286259,99.290293
1727.250665,99.290590
1728.215070,99.289961
1729.179476,99.295544
1730.143882,99.302016
1731.108288,99.298162
1732.072693,99.287288
1733.037099,99.290484
1734.001505,99.300459
1734.965910,99.298076
1735.930316,99.295266
1736.894722,99.293394
1737.859128,99.287003
1738.823533,99.289022
1739.787939,99.293633
1740.752345,99.286674
1741.716751,99.283502
1742.681156,99.292322
1743.645562,99.296340
1744.609968,99.292520
1745.574373,99.293794
1746.538779,99.299428
1747.503185,99.302109
1748.467591,99.299449
1749.431996,99.295645
1750.396402,99.297761
1751.360808,99.294740
1752.325214,99.288451
1753.289619,99.291279
1754.254025,99.285526
1755.218431,99.280394
1756.182837,99.287375
1757.147242,99.285451
1758.111648,99.284504
1759.076054,99.285207
1760.040459,99.287708
1761.004865,99.308806
1761.969271,99.316878
1762.933677,99.303157
1763.898082,99.295279
1764.862488,99.285516
1765.826894,99.279492
1766.791300,99.289181
1767.755705,99.289108
1768.720111,99.271827
1769.684517,99.259171
1770.648922,99.257017
1771.613328,99.266820
1772.577734,99.276859
1773.542140,99.267662
1774.506545,99.261080
1775.470951,99.275384
1776.435357,99.277991
1777.399763,99.253785
1778.364168,99.234066
1779.328574,99.225005
1780.292980,99.218208
1781.257386,99.217660
1782.221791,99.211537
1783.186197,99.199745
1784.150603,99.187419
1785.115008,99.169049
1786.079414,99.159870
1787.043820,99.168153
1788.008226,99.173666
1788.972631,99.167006
1789.937037,99.153560
1790.901443,99.137573
1791.865849,99.136285
1792.830254,99.146940
1793.794660,99.151395
1794.759066,99.155582
1795.723471,99.154994
1796.687877,99.154605
1797.652283,99.162887
1798.616689,99.159529
1799.581094,99.145647
1800.545500,99.141593
1801.509906,99.149675
1802.474312,99.155888
1803.438717,99.164461
1804.403123,99.181898
1805.367529,99.183400
1806.331935,99.180061
1807.296340,99.194337
1808.260746,99.199313
1809.225152,99.197716
1810.189557,99.206928
1811.153963,99.208312
1812.118369,99.213160
1813.082775,99.231567
1814.047180,99.244561
1815.011586,99.262870
1815.975992,99.275345
1816.940398,99.253409
1817.904803,99.221132
1818.869209,99.203495
1819.833615,99.192315
1820.798021,99.170596
1821.762426,99.151532
1822.726832,99.167222
1823.691238,99.191179
1824.655643,99.192827
1825.620049,99.199230
1826.584455,99.210772
1827.548861,99.200890
1828.513266,99.182649
1829.477672,99.182967
1830.442078,99.195040
1831.406484,99.190616
1832.370889,99.177815
1833.335295,99.183828
1834.299701,99.198341
1835.264106,99.202681
1836.228512,99.200813
1837.192918,99.200468
1838.157324,99.197984
1839.121729,99.189253
1840.086135,99.179651
1841.050541,99.169034
1842.014947,99.165445
1842.979352,99.179566
1843.943758,99.189824
1844.908164,99.182874
1845.872570,99.165232
1846.836975,99.143661
1847.801381,99.141646
1848.765787,99.142940
1849.730192,99.136470
1850.694598,99.158233
1851.659004,99.173947
1852.623410,99.151988
1853.587815,99.125749
1854.552221,99.110309
1855.516627,99.118899
1856.481033,99.139845
1857.445438,99.144219
1858.409844,99.141092
1859.374250,99.138440
1860.338655,99.129765
1861.303061,99.115986
1862.267467,99.111858
1863.231873,99.116658
1864.196278,99.103363
1865.160684,99.092766
1866.125090,99.121129
1867.089496,99.143101
1868.053901,99.131089
1869.018307,99.110677
1869.982713,99.080572
1870.947119,99.065419
1871.911524,99.077818
1872.875930,99.095373
1873.840336,99.119195
1874.804741,99.128027
1875.769147,99.117495
1876.733553,99.110822
1877.697959,99.106769
1878.662364,99.097342
1879.626770,99.076869
1880.591176,99.069153
1881.555582,99.073486
1882.519987,99.067033
1883.484393,99.068353
1884.448799,99.067923
1885.413204,99.059569
1886.377610,99.058274
1887.342016,99.059732
1888.306422,99.074537
1889.270827,99.083819
1890.235233,99.072718
1891.199639,99.058022
1892.164045,99.051538
1893.128450,99.074879
1894.092856,99.088599
1895.057262,99.078871
1896.021668,99.089800
1896.986073,99.087375
1897.950479,99.068833
1898.914885,99.067892
1899.879290,99.079675
1900.843696,99.099164
1901.808102,99.097033
1902.772508,99.081809
1903.736913,99.084926
1904.701319,99.087442
1905.665725,99.076036
1906.630131,99.069153
1907.594536,99.079247
1908.558942,99.073849
1909.523348,99.049729
1910.487754,99.055033
1911.452159,99.072140
1912.416565,99.074153
1913.380971,99.089126
1914.345376,99.088482
1915.309782,99.060615
1916.274188,99.078565
1917.238594,99.096321
1918.202999,99.051204
1919.167405,99.039621
1920.131811,99.071797
1921.096217,99.080279
1922.060622,99.095693
1923.025028,99.118037
1923.989434,99.108215
1924.953839,99.077292
1925.918245,99.040846
1926.882651,99.030712
1927.847057,99.062121
1928.811462,99.087744
1929.775868,99.074587
1930.740274,99.035238
1931.704680,99.024403
1932.669085,99.060058
1933.633491,99.076307
1934.597897,99.061164
1935.562303,99.046839
1936.526708,99.024063
1937.491114,99.014399
1938.455520,99.030988
1939.419925,99.018837
1940.384331,98.994161
1941.348737,99.012688
1942.313143,99.036039
1943.277548,99.029181
1944.241954,99.007293
1945.206360,99.002750
1946.170766,99.008192
1947.135171,98.994766
1948.099577,98.978961
1949.063983,98.927691
1950.028388,98.893102
1950.992794,98.941054
1951.957200,98.948810
1952.921606,98.930216
1953.886011,98.949006
1954.850417,98.952961
1955.814823,98.972974
1956.779229,99.012082
1957.743634,99.056415
1958.708040,99.065446
1959.672446,98.963818
1960.636852,98.862970
1961.601257,98.863079
1962.565663,98.911821
1963.530069,98.952141
1964.494474,98.962732
1965.458880,98.975111
1966.423286,98.971959
1967.387692,98.914257
1968.352097,98.870182
1969.316503,98.875043
1970.280909,98.828492
1971.245315,98.734012
1972.209720,98.739822
1973.174126,98.791408
1974.138532,98.779357
1975.102938,98.771891
1976.067343,98.763210
1977.031749,98.653649
1977.996155,98.467160
1978.960560,98.407818
1979.924966,98.498482
1980.889372,98.566064
1981.853778,98.598654
1982.818183,98.624194
1983.782589,98.669899
1984.746995,98.705157
1985.711401,98.690630
1986.675806,98.738049
1987.640212,98.768514
1988.604618,98.722996
1989.569023,98.752492
1990.533429,98.790147
1991.497835,98.775930
1992.462241,98.796765
1993.426646,98.798059
1994.391052,98.766917
1995.355458,98.785270
1996.319864,98.817693
1997.284269,98.856880
1998.248675,98.933151
1999.213081,98.989347
2000.177487,98.993279
2001.141892,98.957161
2002.106298,98.950439
2003.070704,98.989349
2004.035109,98.987097
2004.999515,98.963562
2005.963921,98.933416
2006.928327,98.860390
2007.892732,98.786106
2008.857138,98.729473
2009.821544,98.698205
2010.785950,98.721783
2011.750355,98.770213
2012.714761,98.777132
2013.679167,98.754237
2014.643572,98.763667
2015.607978,98.766032
2016.572384,98.728162
2017.536790,98.742616
2018.501195,98.812280
2019.465601,98.818750
2020.430007,98.754878
2021.394413,98.719986
2022.358818,98.720676
2023.323224,98.709693
2024.287630,98.724810
2025.252036,98.741868
2026.216441,98.712223
2027.180847,98.700173
2028.145253,98.708993
2029.109658,98.696437
2030.074064,98.680936
2031.038470,98.676345
2032.002876,98.663879
2032.967281,98.646314
2033.931687,98.633706
2034.896093,98.626383
2035.860499,98.635807
2036.824904,98.605317
2037.789310,98.570386
2038.753716,98.617681
2039.718121,98.662448
2040.682527,98.681220
2041.646933,98.709250
2042.611339,98.714026
2043.575744,98.687118
2044.540150,98.655880
2045.504556,98.637979
2046.468962,98.615890
2047.433367,98.637595
2048.397773,98.673016
2049.362179,98.597575
2050.326585,98.518286
2051.290990,98.586092
2052.255396,98.728339
2053.219802,98.797243
2054.184207,98.770317
2055.148613,98.764636
2056.113019,98.803210
2057.077425,98.810562
2058.041830,98.822511
2059.006236,98.865998
2059.970642,98.869642
2060.935048,98.849976
2061.899453,98.849076
2062.863859,98.829608
2063.828265,98.812147
2064.792671,98.842413
2065.757076,98.884143
2066.721482,98.890685
2067.685888,98.857147
2068.650293,98.825868
2069.614699,98.803317
2070.579105,98.759557
2071.543511,98.763443
2072.507916,98.813901
2073.472322,98.836399
2074.436728,98.843595
2075.401134,98.813414
2076.365539,98.775786
2077.329945,98.793628
2078.294351,98.830314
2079.258756,98.861426
2080.223162,98.872662
2081.187568,98.858703
2082.151974,98.845591
2083.116379,98.855805
2084.080785,98.866673
2085.045191,98.857826
2086.009597,98.867185
2086.974002,98.893993
2087.938408,98.922839
2088.902814,98.953472
2089.867220,98.975297
2090.831625,98.984793
2091.796031,98.988361
2092.760437,98.995772
2093.724842,98.985139
2094.689248,98.967983
2095.653654,98.937933
2096.618060,98.881458
2097.582465,98.865741
2098.546871,98.881929
2099.511277,98.899793
2100.475683,98.912336
2101.440088,98.894405
2102.404494,98.878903
2103.368900,98.874260
2104.333305,98.873012
2105.297711,98.894799
2106.262117,98.899121
2107.226523,98.843230
2108.190928,98.817001
2109.155334,98.876347
2110.119740,98.920994
2111.084146,98.935577
2112.048551,98.933822
2113.012957,98.875903
2113.977363,98.829901
2114.941769,98.845891
2115.906174,98.892127
2116.870580,98.940639
2117.834986,98.974137
2118.799391,99.000046
2119.763797,99.004224
2120.728203,98.984017
2121.692609,98.991964
2122.657014,99.032156
2123.621420,99.050668
2124.585826,99.045254
2125.550232,99.059644
2126.514637,99.090403
2127.479043,99.099430
2128.443449,99.088951
2129.407854,99.093842
2130.372260,99.103824
2131.336666,99.094585
2132.301072,99.112261
2133.265477,99.136462
2134.229883,99.078541
2135.194289,98.990701
2136.158695,98.941578
2137.123100,98.896704
2138.087506,98.876037
2139.051912,98.916890
2140.016318,98.954756
2140.980723,98.936634
2141.945129,98.894969
2142.909535,98.838310
2143.873940,98.793339
2144.838346,98.804281
2145.802752,98.802883
2146.767158,98.796868
2147.731563,98.838335
2148.695969,98.838394
2149.660375,98.804166
2150.624781,98.797269
2151.589186,98.822245
2152.553592,98.875899
2153.517998,98.899615
2154.482404,98.921808
2155.446809,98.941096
2156.411215,98.897781
2157.375621,98.799191
2158.340026,98.591426
2159.304432,98.346287
2160.268838,98.174208
2161.233244,98.124972
2162.197649,98.188945
2163.162055,98.216637
2164.126461,98.253677
2165.090867,98.282943
2166.055272,98.208173
2167.019678,98.189391
2167.984084,98.249166
2168.948489,98.294063
2169.912895,98.311746
2170.877301,98.353093
2171.841707,98.475156
2172.806112,98.576442
2173.770518,98.563229
2174.734924,98.465118
2175.699330,98.377569
2176.663735,98.371314
2177.628141,98.427892
2178.592547,98.493334
2179.556953,98.510666
2180.521358,98.504398
2181.485764,98.472950
2182.450170,98.382776
2183.414575,98.334231
2184.378981,98.377438
2185.343387,98.408716
2186.307793,98.383437
2187.272198,98.362824
2188.236604,98.364115
2189.201010,98.386808
2190.165416,98.390921
2191.129821,98.364789
2192.094227,98.435306
2193.058633,98.511668
2194.023038,98.453966
2194.987444,98.413316
2195.951850,98.433141
2196.916256,98.442538
2197.880661,98.457302
2198.845067,98.461697
2199.809473,98.425039
2200.773879,98.367577
2201.738284,98.345001
2202.702690,98.353423
2203.667096,98.368877
2204.631502,98.386734
2205.595907,98.386622
2206.560313,98.413449
2207.524719,98.432538
2208.489124,98.393254
2209.453530,98.400753
2210.417936,98.424107
2211.382342,98.400289
2212.346747,98.397994
2213.311153,98.413269
2214.275559,98.440352
2215.239965,98.444500
2216.204370,98.390289
2217.168776,98.365775
2218.133182,98.356518
2219.097587,98.298370
2220.061993,98.283647
2221.026399,98.344069
2221.990805,98.377890
2222.955210,98.386756
2223.919616,98.396964
2224.884022,98.369016
2225.848428,98.331972
2226.812833,98.284048
2227.777239,98.227098
2228.741645,98.229807
2229.706051,98.269326
2230.670456,98.313819
2231.634862,98.342935
2232.599268,98.324458
2233.563673,98.310474
2234.528079,98.336758
2235.492485,98.385734
2236.456891,98.408745
2237.421296,98.351581
2238.385702,98.293372
2239.350108,98.307278
2240.314514,98.320001
2241.278919,98.315753
2242.243325,98.327002
2243.207731,98.318457
2244.172137,98.300704
2245.136542,98.305355
2246.100948,98.298889
2247.065354,98.276372
2248.029759,98.277665
2248.994165,98.280807
2249.958571,98.260192
2250.922977,98.258111
2251.887382,98.256042
2252.851788,98.217419
2253.816194,98.198454
2254.780600,98.211252
2255.745005,98.201511
2256.709411,98.174530
2257.673817,98.177904
2258.638222,98.202619
2259.602628,98.194584
2260.567034,98.157210
2261.531440,98.128632
2262.495845,98.116568
2263.460251,98.121077
2264.424657,98.123518
2265.389063,98.091805
2266.353468,98.035206
2267.317874,98.010009
2268.282280,98.033023
2269.246686,98.044410
2270.211091,98.026334
2271.175497,98.013828
2272.139903,98.019611
2273.104308,98.029494
2274.068714,98.011284
2275.033120,97.984852
2275.997526,97.975505
2276.961931,97.965431
2277.926337,97.957095
2278.890743,97.937141
2279.855149,97.901270
2280.819554,97.877512
2281.783960,97.868145
2282.748366,97.860110
2283.712771,97.845074
2284.677177,97.821876
2285.641583,97.801950
2286.605989,97.810508
2287.570394,97.831975
2288.534800,97.838484
2289.499206,97.844188
2290.463612,97.847622
2291.428017,97.856751
2292.392423,97.886426
2293.356829,97.910348
2294.321235,97.913325
2295.285640,97.913114
2296.250046,97.922402
2297.214452,97.921545
2298.178857,97.917364
2299.143263,97.941354
2300.107669,97.961982
2301.072075,97.962144
2302.036480,97.978076
2303.000886,97.998077
2303.965292,98.005773
2304.929698,98.018105
2305.894103,98.026137
2306.858509,98.032426
2307.822915,98.039430
2308.787320,98.034715
2309.751726,98.043608
2310.716132,98.063887
2311.680538,98.065241
2312.644943,98.060457
2313.609349,98.064444
2314.573755,98.068480
2315.538161,98.078319
2316.502566,98.091700
2317.466972,98.074374
2318.431378,98.054708
2319.395784,98.064577
2320.360189,98.060168
2321.324595,98.052165
2322.289001,98.052806
2323.253406,98.038341
2324.217812,98.067358
2325.182218,98.163552
2326.146624,98.253455
2327.111029,98.307873
2328.075435,98.346413
2329.039841,98.364793
2330.004247,98.370631
2330.968652,98.386218
2331.933058,98.392004
2332.897464,98.385526
2333.861870,98.386053
2334.826275,98.368776
2335.790681,98.342376
2336.755087,98.336462
2337.719492,98.334564
2338.683898,98.324346
2339.648304,98.305098
2340.612710,98.297301
2341.577115,98.301303
2342.541521,98.283847
2343.505927,98.264905
2344.470333,98.263632
2345.434738,98.265541
2346.399144,98.261399
2347.363550,98.246872
2348.327955,98.232602
2349.292361,98.217002
2350.256767,98.201397
2351.221173,98.203294
2352.185578,98.208530
2353.149984,98.197266
2354.114390,98.192381
2355.078796,98.202845
2356.043201,98.198006
2357.007607,98.181619
2357.972013,98.168152
2358.936419,98.159953
2359.900824,98.170248
2360.865230,98.179173
2361.829636,98.167306
2362.794041,98.159464
2363.758447,98.171445
2364.722853,98.183946
2365.687259,98.190084
2366.651664,98.187706
2367.616070,98.172027
2368.580476,98.170353
2369.544882,98.174152
2370.509287,98.163915
2371.473693,98.153417
2372.438099,98.138565
2373.402504,98.135328
2374.366910,98.146979
2375.331316,98.154600
2376.295722,98.163117
2377.260127,98.163980
2378.224533,98.163746
2379.188939,98.174115
2380.153345,98.176118
2381.117750,98.160183
2382.082156,98.136675
2383.046562,98.130699
2384.010968,98.144830
2384.975373,98.149988
2385.939779,98.150078
2386.904185,98.155745
2387.868590,98.147616
2388.832996,98.141270
2389.797402,98.160269
2390.761808,98.170771
2391.726213,98.154480
2392.690619,98.144000
2393.655025,98.146637
2394.619431,98.138678
2395.583836,98.123580
2396.548242,98.118647
2397.512648,98.117030
2398.477053,98.112406
2399.441459,98.117482
2400.405865,98.128613
2401.370271,98.128844
2402.334676,98.119542
2403.299082,98.114965
2404.263488,98.114227
2405.227894,98.101179
2406.192299,98.091716
2407.156705,98.091142
2408.121111,98.080725
2409.085517,98.084943
2410.049922,98.097897
2411.014328,98.085806
2411.978734,98.066957
2412.943139,98.073225
2413.907545,98.092968
2414.871951,98.098565
2415.836357,98.115101
2416.800762,98.124926
2417.765168,98.093131
2418.729574,98.080303
2419.693980,98.096435
2420.658385,98.111878
2421.622791,98.124124
2422.587197,98.109549
2423.551603,98.097551
2424.516008,98.116696
2425.480414,98.119724
2426.444820,98.099134
2427.409225,98.103443
2428.373631,98.130175
2429.338037,98.141221
2430.302443,98.136721
2431.266848,98.143079
2432.231254,98.165047
2433.195660,98.164547
2434.160066,98.146292
2435.124471,98.157700
2436.088877,98.164993
2437.053283,98.151111
2438.017688,98.165950
2438.982094,98.186481
2439.946500,98.183116
2440.910906,98.174896
2441.875311,98.154057
2442.839717,98.135802
2443.804123,98.147816
2444.768529,98.171292
2445.732934,98.191226
2446.697340,98.206824
2447.661746,98.207242
2448.626152,98.188814
2449.590557,98.174016
2450.554963,98.179521
2451.519369,98.193347
2452.483774,98.197218
2453.448180,98.189558
2454.412586,98.200116
2455.376992,98.219929
2456.341397,98.216414
2457.305803,98.225184
2458.270209,98.255350
2459.234615,98.266267
2460.199020,98.265523
2461.163426,98.271103
2462.127832,98.272370
2463.092237,98.272331
2464.056643,98.272378
2465.021049,98.261729
2465.985455,98.264866
2466.949860,98.292348
2467.914266,98.314801
2468.878672,98.320694
2469.843078,98.327462
2470.807483,98.345102
2471.771889,98.341134
2472.736295,98.332273
2473.700701,98.348142
2474.665106,98.347295
2475.629512,98.353951
2476.593918,98.381816
2477.558323,98.373173
2478.522729,98.344458
2479.487135,98.334656
2480.451541,98.341561
2481.415946,98.348861
2482.380352,98.352004
2483.344758,98.371291
2484.309164,98.389443
2485.273569,98.360164
2486.237975,98.329812
2487.202381,98.357390
2488.166786,98.380460
2489.131192,98.371950
2490.095598,98.360361
2491.060004,98.351410
2492.024409,98.373820
2492.988815,98.401898
2493.953221,98.402492
2494.917627,98.390195
2495.882032,98.376357
2496.846438,98.386883
2497.810844,98.398507
2498.775250,98.380330
2499.739655,98.368076
2500.704061,98.388748
2501.668467,98.414863
2502.632872,98.415159
2503.597278,98.411712
2504.561684,98.414105
2505.526090,98.422068
2506.490495,98.437924
2507.454901,98.427955
2508.419307,98.408788
2509.383713,98.409003
2510.348118,98.426799
2511.312524,98.459090
2512.276930,98.466041
2513.241336,98.447322
2514.205741,98.428136
2515.170147,98.400906
2516.134553,98.384554
2517.098958,98.385359
2518.063364,98.380154
2519.027770,98.381989
2519.992176,98.407465
2520.956581,98.423453
2521.920987,98.417576
2522.885393,98.416648
2523.849799,98.414424
2524.814204,98.407620
2525.778610,98.418404
2526.743016,98.446792
2527.707421,98.462581
2528.671827,98.453562
2529.636233,98.446084
2530.600639,98.447417
2531.565044,98.452226
2532.529450,98.458823
2533.493856,98.456212
2534.458262,98.444503
2535.422667,98.436389
2536.387073,98.438323
2537.351479,98.431929
2538.315885,98.423576
2539.280290,98.434761
2540.244696,98.449080
2541.209102,98.457199
2542.173507,98.452997
2543.137913,98.449366
2544.102319,98.459702
2545.066725,98.448738
2546.031130,98.425180
2546.995536,98.415833
2547.959942,98.412554
2548.924348,98.429163
2549.888753,98.448594
2550.853159,98.443182
2551.817565,98.443058
2552.781970,98.447819
2553.746376,98.437925
2554.710782,98.435158
2555.675188,98.436290
2556.639593,98.430869
2557.603999,98.434357
2558.568405,98.440068
2559.532811,98.435493
2560.497216,98.430744
2561.461622,98.431159
2562.426028,98.421057
2563.390434,98.403039
2564.354839,98.403795
2565.319245,98.425714
2566.283651,98.449987
2567.248056,98.449233
2568.212462,98.424685
2569.176868,98.423140
2570.141274,98.432278
2571.105679,98.416966
2572.070085,98.412958
2573.034491,98.419085
2573.998897,98.409718
2574.963302,98.411511
2575.927708,98.422236
2576.892114,98.416402
2577.856520,98.405213
2578.820925,98.410357
2579.785331,98.425064
2580.749737,98.432556
2581.714142,98.427225
2582.678548,98.407447
2583.642954,98.388058
2584.607360,98.370778
2585.571765,98.360486
2586.536171,98.369929
2587.500577,98.371944
2588.464983,98.367848
2589.429388,98.368665
2590.393794,98.367263
2591.358200,98.381227
2592.322605,98.387529
2593.287011,98.374605
2594.251417,98.376927
2595.215823,98.384934
2596.180228,98.386149
2597.144634,98.384321
2598.109040,98.376744
2599.073446,98.374820
2600.037851,98.378254
2601.002257,98.381484
2601.966663,98.378185
2602.931069,98.356938
2603.895474,98.346031
2604.859880,98.353203
2605.824286,98.346564
2606.788691,98.346376
2607.753097,98.358644
2608.717503,98.350553
2609.681909,98.337842
2610.646314,98.338595
2611.610720,98.341655
2612.575126,98.346463
2613.539532,98.356170
2614.503937,98.355548
2615.468343,98.337458
2616.432749,98.328073
2617.397154,98.335483
2618.361560,98.340637
2619.325966,98.338094
2620.290372,98.336576
2621.254777,98.335532
2622.219183,98.324491
2623.183589,98.324140
2624.147995,98.339999
2625.112400,98.341444
2626.076806,98.336628
2627.041212,98.331683
2628.005618,98.322659
2628.970023,98.332495
2629.934429,98.346551
2630.898835,98.334267
2631.863240,98.319635
2632.827646,98.330600
2633.792052,98.348648
2634.756458,98.353787
2635.720863,98.351448
2636.685269,98.355327
2637.649675,98.367187
2638.614081,98.366361
2639.578486,98.357486
2640.542892,98.360314
2641.507298,98.359985
2642.471703,98.354630
2643.436109,98.357723
2644.400515,98.358351
2645.364921,98.351862
2646.329326,98.353344
2647.293732,98.365922
2648.258138,98.379303
2649.222544,98.388990
2650.186949,98.387632
2651.151355,98.375692
2652.115761,98.367720
2653.080167,98.370131
2654.044572,98.383642
2655.008978,98.393796
2655.973384,98.391884
2656.937789,98.394557
2657.902195,98.396843
2658.866601,98.394256
2659.831007,98.403119
2660.795412,98.413698
2661.759818,98.417921
2662.724224,98.427175
2663.688630,98.434448
2664.653035,98.439865
2665.617441,98.453364
2666.581847,98.456527
2667.546253,98.448842
2668.510658,98.449758
2669.475064,98.446190
2670.439470,98.439110
2671.403875,98.443554
2672.368281,98.443054
2673.332687,98.435685
2674.297093,98.443534
2675.261498,98.459590
2676.225904,98.453271
2677.190310,98.431339
2678.154716,98.428786
2679.119121,98.435904
2680.083527,98.424431
2681.047933,98.405078
2682.012338,98.399120
2682.976744,98.409881
2683.941150,98.421386
2684.905556,98.422434
2685.869961,98.425341
2686.834367,98.425795
2687.798773,98.415917
2688.763179,98.407708
2689.727584,98.396153
2690.691990,98.386953
2691.656396,98.386146
2692.620802,98.382857
2693.585207,98.396425
2694.549613,98.412873
2695.514019,98.402321
2696.478424,98.396853
2697.442830,98.403411
2698.407236,98.399049
2699.371642,98.394277
2700.336047,98.394872
2701.300453,98.385472
2702.264859,98.371956
2703.229265,98.376600
2704.193670,98.385771
2705.158076,98.381448
2706.122482,98.376210
2707.086887,98.377407
2708.051293,98.373885
2709.015699,98.356552
2709.980105,98.350158
2710.944510,98.362318
2711.908916,98.366930
2712.873322,98.369457
2713.837728,98.366494
2714.802133,98.352743
2715.766539,98.348309
2716.730945,98.346568
2717.695351,98.341061
2718.659756,98.340557
2719.624162,98.344321
2720.588568,98.344696
2721.552973,98.338995
2722.517379,98.332964
2723.481785,98.327078
2724.446191,98.323643
2725.410596,98.320632
2726.375002,98.321954
2727.339408,98.330878
2728.303814,98.331778
2729.268219,98.331393
2730.232625,98.331801
2731.197031,98.329665
2732.161436,98.330301
2733.125842,98.316443
2734.090248,98.307310
2735.054654,98.319105
2736.019059,98.323273
2736.983465,98.320319
2737.947871,98.317080
2738.912277,98.312419
2739.876682,98.305015
2740.841088,98.295691
2741.805494,98.296595
2742.769900,98.293664
2743.734305,98.282961
2744.698711,98.282771
2745.663117,98.282813
2746.627522,98.273298
2747.591928,98.262885
2748.556334,98.260103
2749.520740,98.265462
2750.485145,98.271238
2751.449551,98.271007
2752.413957,98.264894
2753.378363,98.260154
2754.342768,98.262938
2755.307174,98.273454
2756.271580,98.280078
2757.235986,98.273132
2758.200391,98.263296
2759.164797,98.258352
2760.129203,98.252996
2761.093608,98.245579
2762.058014,98.247887
2763.022420,98.255032
2763.986826,98.245185
2764.951231,98.234637
2765.915637,98.243387
2766.880043,98.252232
2767.844449,98.246402
2768.808854,98.241149
2769.773260,98.241393
2770.737666,98.235752
2771.702071,98.234644
2772.666477,98.227266
2773.630883,98.210683
2774.595289,98.215728
2775.559694,98.221942
2776.524100,98.215231
2777.488506,98.208850
2778.452912,98.198991
2779.417317,98.198325
2780.381723,98.209487
2781.346129,98.219445
2782.310535,98.214082
2783.274940,98.196417
2784.239346,98.195344
2785.203752,98.202423
2786.168157,98.194179
2787.132563,98.185120
2788.096969,98.181115
2789.061375,98.173153
2790.025780,98.173809
2790.990186,98.175942
2791.954592,98.166022
2792.918998,98.165201
2793.883403,98.172540
2794.847809,98.176432
2795.812215,98.177281
2796.776620,98.167566
2797.741026,98.156094
2798.705432,98.155568
2799.669838,98.160056
2800.634243,98.161888
2801.598649,98.168583
2802.563055,98.171811
2803.527461,98.153945
2804.491866,98.136308
2805.456272,98.133842
2806.420678,98.141278
2807.385084,98.153390
2808.349489,98.151744
2809.313895,98.134795
2810.278301,98.116861
2811.242706,98.107028
2812.207112,98.111290
2813.171518,98.128761
2814.135924,98.142395
2815.100329,98.125756
2816.064735,98.103018
2817.029141,98.109173
2817.993547,98.113081
2818.957952,98.104118
2819.922358,98.101361
2820.886764,98.098584
2821.851169,98.097973
2822.815575,98.095223
2823.779981,98.088501
2824.744387,98.082630
2825.708792,98.069668
2826.673198,98.055135
2827.637604,98.041493
2828.602010,98.041762
2829.566415,98.060838
2830.530821,98.065593
2831.495227,98.048718
2832.459633,98.028196
2833.424038,98.024119
2834.388444,98.031301
2835.352850,98.023507
2836.317255,98.014233
2837.281661,98.008730
2838.246067,97.995572
2839.210473,97.986561
2840.174878,97.976912
2841.139284,97.963612
2842.103690,97.961581
2843.068096,97.964257
2844.032501,97.953191
2844.996907,97.930585
2845.961313,97.912385
2846.925719,97.899181
2847.890124,97.885371
2848.854530,97.867354
2849.818936,97.845579
2850.783341,97.835683
2851.747747,97.830360
2852.712153,97.820952
2853.676559,97.818938
2854.640964,97.803021
2855.605370,97.778313
2856.569776,97.782005
2857.534182,97.795553
2858.498587,97.791897
2859.462993,97.780888
2860.427399,97.783904
2861.391804,97.795183
2862.356210,97.790946
2863.320616,97.794062
2864.285022,97.814230
2865.249427,97.819445
2866.213833,97.819345
2867.178239,97.822721
2868.142645,97.819421
2869.107050,97.817906
2870.071456,97.811424
2871.035862,97.806015
2872.000268,97.811508
2872.964673,97.802598
2873.929079,97.784771
2874.893485,97.785032
2875.857890,97.792120
2876.822296,97.788886
2877.786702,97.788042
2878.751108,97.801215
2879.715513,97.806267
2880.679919,97.794419
2881.644325,97.790596
2882.608731,97.792390
2883.573136,97.781389
2884.537542,97.766070
2885.501948,97.757648
2886.466353,97.755331
2887.430759,97.745887
2888.395165,97.728215
2889.359571,97.728164
2890.323976,97.734677
2891.288382,97.726428
2892.252788,97.729005
2893.217194,97.737575
2894.181599,97.729670
2895.146005,97.724664
2896.110411,97.716737
2897.074817,97.691616
2898.039222,97.676345
2899.003628,97.678161
2899.968034,97.684446
2900.932439,97.692003
2901.896845,97.694319
2902.861251,97.690420
2903.825657,97.680018
2904.790062,97.670088
2905.754468,97.669189
2906.718874,97.665166
2907.683280,97.663349
2908.647685,97.674082
2909.612091,97.667331
2910.576497,97.635384
2911.540902,97.619125
2912.505308,97.624823
2913.469714,97.619298
2914.434120,97.600416
2915.398525,97.593320
2916.362931,97.596357
2917.327337,97.581445
2918.291743,97.552181
2919.256148,97.538981
2920.220554,97.537113
2921.184960,97.533252
2922.149366,97.538822
2923.113771,97.544449
2924.078177,97.538599
2925.042583,97.539345
2926.006988,97.544441
2926.971394,97.539454
2927.935800,97.530078
2928.900206,97.521859
2929.864611,97.519232
2930.829017,97.522210
2931.793423,97.529560
2932.757829,97.543313
2933.722234,97.552964
2934.686640,97.557780
2935.651046,97.574076
2936.615452,97.599813
2937.579857,97.606832
2938.544263,97.592651
2939.508669,97.598294
2940.473074,97.624508
2941.437480,97.639417
2942.401886,97.636013
2943.366292,97.614805
2944.330697,97.605726
2945.295103,97.622041
2946.259509,97.637476
2947.223915,97.652035
2948.188320,97.660731
2949.152726,97.664238
2950.117132,97.672364
2951.081537,97.678655
2952.045943,97.684261
2953.010349,97.675325
2953.974755,97.660577
2954.939160,97.657311
2955.903566,97.643607
2956.867972,97.630589
2957.832378,97.640057
2958.796783,97.646730
2959.761189,97.639670
2960.725595,97.642020
2961.690001,97.650098
2962.654406,97.660178
2963.618812,97.673358
2964.583218,97.670020
2965.547623,97.676047
2966.512029,97.692834
2967.476435,97.680420
2968.440841,97.660528
2969.405246,97.657038
2970.369652,97.663148
2971.334058,97.664205
2972.298464,97.658593
2973.262869,97.662584
2974.227275,97.670351
2975.191681,97.675584
2976.156086,97.677161
2977.120492,97.681465
2978.084898,97.702642
2979.049304,97.721899
2980.013709,97.718623
2980.978115,97.708300
2981.942521,97.703524
2982.906927,97.702702
2983.871332,97.719246
2984.835738,97.732404
2985.800144,97.717404
2986.764550,97.721687
2987.728955,97.742132
2988.693361,97.732761
2989.657767,97.716259
2990.622172,97.708002
2991.586578,97.707983
2992.550984,97.714039
2993.515390,97.713716
2994.479795,97.725461
2995.444201,97.733028
2996.408607,97.720970
2997.373013,97.727316
2998.337418,97.734747
2999.301824,97.725844
3000.266230,97.727195
3001.230635,97.724209
3002.195041,97.717870
3003.159447,97.721477
3004.123853,97.714402
3005.088258,97.711054
3006.052664,97.712765
3007.017070,97.690044
3007.981476,97.680823
3008.945881,97.706184
3009.910287,97.717230
3010.874693,97.702689
3011.839099,97.685822
3012.803504,97.684877
3013.767910,97.696031
3014.732316,97.690918
3015.696721,97.677072
3016.661127,97.670877
3017.625533,97.662483
3018.589939,97.663639
3019.554344,97.681073
3020.518750,97.690668
3021.483156,97.678801
3022.447562,97.659898
3023.411967,97.654888
3024.376373,97.661478
3025.340779,97.664178
3026.305185,97.652275
3027.269590,97.641734
3028.233996,97.657279
3029.198402,97.663471
3030.162807,97.641405
3031.127213,97.629570
3032.091619,97.623007
3033.056025,97.617002
3034.020430,97.624604
3034.984836,97.626872
3035.949242,97.619976
3036.913648,97.603059
3037.878053,97.594867
3038.842459,97.627070
3039.806865,97.643728
3040.771270,97.616227
3041.735676,97.604849
3042.700082,97.609484
3043.664488,97.610905
3044.628893,97.614235
3045.593299,97.603453
3046.557705,97.589740
3047.522111,97.583027
3048.486516,97.579794
3049.450922,97.589675
3050.415328,97.594239
3051.379734,97.580868
3052.344139,97.569425
3053.308545,97.572483
3054.272951,97.571442
3055.237356,97.553498
3056.201762,97.556202
3057.166168,97.583706
3058.130574,97.583486
3059.094979,97.555481
3060.059385,97.547164
3061.023791,97.555628
3061.988197,97.544126
3062.952602,97.528385
3063.917008,97.524042
3064.881414,97.519480
3065.845819,97.526873
3066.810225,97.534595
3067.774631,97.527422
3068.739037,97.513009
3069.703442,97.502080
3070.667848,97.517742
3071.632254,97.530325
3072.596660,97.517494
3073.561065,97.518439
3074.525471,97.512519
3075.489877,97.481636
3076.454283,97.481401
3077.418688,97.509084
3078.383094,97.514424
3079.347500,97.510861
3080.311905,97.515990
3081.276311,97.506052
3082.240717,97.484362
3083.205123,97.473542
3084.169528,97.477027
3085.133934,97.483762
3086.098340,97.483107
3087.062746,97.474120
3088.027151,97.459185
3088.991557,97.457774
3089.955963,97.472077
3090.920368,97.468936
3091.884774,97.447953
3092.849180,97.433450
3093.813586,97.445194
3094.777991,97.478427
3095.742397,97.485242
3096.706803,97.457740
3097.671209,97.436902
3098.635614,97.431616
3099.600020,97.424364
3100.564426,97.410212
3101.528832,97.396407
3102.493237,97.387459
3103.457643,97.393140
3104.422049,97.408960
3105.386454,97.422210
3106.350860,97.431586
3107.315266,97.413256
3108.279672,97.383109
3109.244077,97.388129
3110.208483,97.401881
3111.172889,97.396468
3112.137295,97.389825
3113.101700,97.390617
3114.066106,97.397873
3115.030512,97.407559
3115.994918,97.405720
3116.959323,97.385829
3117.923729,97.371676
3118.888135,97.377180
3119.852540,97.376687
3120.816946,97.356523
3121.781352,97.339677
3122.745758,97.347281
3123.710163,97.358458
3124.674569,97.351823
3125.638975,97.343023
3126.603381,97.325141
3127.567786,97.296856
3128.532192,97.298009
3129.496598,97.325843
3130.461003,97.341815
3131.425409,97.330414
3132.389815,97.311813
3133.354221,97.309107
3134.318626,97.307536
3135.283032,97.313148
3136.247438,97.325834
3137.211844,97.300573
3138.176249,97.275307
3139.140655,97.290999
3140.105061,97.290610
3141.069467,97.286282
3142.033872,97.291828
3142.998278,97.269317
3143.962684,97.271175
3144.927089,97.297898
3145.891495,97.302155
3146.855901,97.298198
3147.820307,97.283474
3148.784712,97.275708
3149.749118,97.275010
3150.713524,97.260423
3151.677930,97.244285
3152.642335,97.240499
3153.606741,97.248947
3154.571147,97.240134
3155.535552,97.236237
3156.499958,97.237217
3157.464364,97.211453
3158.428770,97.195988
3159.393175,97.189417
3160.357581,97.208099
3161.321987,97.239249
3162.286393,97.223366
3163.250798,97.213571
3164.215204,97.216955
3165.179610,97.202812
3166.144016,97.199906
3167.108421,97.186395
3168.072827,97.152339
3169.037233,97.134425
3170.001638,97.140969
3170.966044,97.155988
3171.930450,97.162144
3172.894856,97.172212
3173.859261,97.190414
3174.823667,97.180806
3175.788073,97.163791
3176.752479,97.166402
3177.716884,97.157337
3178.681290,97.142263
3179.645696,97.138945
3180.610102,97.136259
3181.574507,97.131009
3182.538913,97.138231
3183.503319,97.158612
3184.467724,97.167328
3185.432130,97.149456
3186.396536,97.108068
3187.360942,97.087865
3188.325347,97.093540
3189.289753,97.079172
3190.254159,97.073982
3191.218565,97.086007
3192.182970,97.077183
3193.147376,97.059113
3194.111782,97.055401
3195.076187,97.068934
3196.040593,97.070544
3197.004999,97.055585
3197.969405,97.056147
3198.933810,97.068784
3199.898216,97.083642
3200.862622,97.083192
3201.827028,97.052310
3202.791433,97.024442
3203.755839,97.015451
3204.720245,97.015470
3205.684651,97.018010
3206.649056,97.021526
3207.613462,97.021744
3208.577868,96.999671
3209.542273,96.991730
3210.506679,97.005721
3211.471085,96.991310
3212.435491,96.977273
3213.399896,96.975035
3214.364302,96.974337
3215.328708,96.993905
3216.293114,97.000453
3217.257519,96.979997
3218.221925,96.957884
3219.186331,96.946440
3220.150736,96.930222
3221.115142,96.904887
3222.079548,96.917551
3223.043954,96.945685
3224.008359,96.934310
3224.972765,96.915284
3225.937171,96.895710
3226.901577,96.862685
3227.865982,96.865863
3228.830388,96.898842
3229.794794,96.903839
3230.759200,96.902559
3231.723605,96.903967
3232.688011,96.884127
3233.652417,96.872530
3234.616822,96.866949
3235.581228,96.859078
3236.545634,96.864076
3237.510040,96.865296
3238.474445,96.863949
3239.438851,96.842216
3240.403257,96.811751
3241.367663,96.823919
3242.332068,96.825432
3243.296474,96.793996
3244.260880,96.778800
3245.225285,96.781352
3246.189691,96.803903
3247.154097,96.814220
3248.118503,96.783484
3249.082908,96.762274
3250.047314,96.771324
3251.011720,96.776754
3251.976126,96.758445
3252.940531,96.731508
3253.904937,96.723693
3254.869343,96.735126
3255.833749,96.740310
3256.798154,96.724356
3257.762560,96.701353
3258.726966,96.694480
3259.691371,96.694893
3260.655777,96.667068
3261.620183,96.629596
3262.584589,96.633145
3263.548994,96.647836
3264.513400,96.633946
3265.477806,96.630882
3266.442212,96.650290
3267.406617,96.656891
3268.371023,96.661615
3269.335429,96.672638
3270.299835,96.661009
3271.264240,96.626273
3272.228646,96.596004
3273.193052,96.585360
3274.157457,96.579612
3275.121863,96.572458
3276.086269,96.577178
3277.050675,96.597521
3278.015080,96.627341
3278.979486,96.615277
3279.943892,96.557451
3280.908298,96.545135
3281.872703,96.578129
3282.837109,96.590988
3283.801515,96.583724
3284.765920,96.585094
3285.730326,96.601821
3286.694732,96.591196
3287.659138,96.551027
3288.623543,96.530544
3289.587949,96.505577
3290.552355,96.487448
3291.516761,96.531522
3292.481166,96.564015
3293.445572,96.541707
3294.409978,96.530865
3295.374384,96.535753
3296.338789,96.535179
3297.303195,96.533468
3298.267601,96.531392
3299.232006,96.525132
3300.196412,96.517610
3301.160818,96.529102
3302.125224,96.548997
3303.089629,96.537163
3304.054035,96.487738
3305.018441,96.462732
3305.982847,96.483321
3306.947252,96.492059
3307.911658,96.499123
3308.876064,96.511336
3309.840469,96.499547
3310.804875,96.496567
3311.769281,96.514117
3312.733687,96.520594
3313.698092,96.503160
3314.662498,96.483168
3315.626904,96.477471
3316.591310,96.483124
3317.555715,96.497669
3318.520121,96.508726
3319.484527,96.515482
3320.448933,96.506139
3321.413338,96.483203
3322.377744,96.481250
3323.342150,96.479482
3324.306555,96.457119
3325.270961,96.451493
3326.235367,96.479158
3327.199773,96.495789
3328.164178,96.478311
3329.128584,96.464551
3330.092990,96.457921
3331.057396,96.444399
3332.021801,96.442845
3332.986207,96.434876
3333.950613,96.409990
3334.915018,96.429821
3335.879424,96.470233
3336.843830,96.455631
3337.808236,96.464695
3338.772641,96.513886
3339.737047,96.494420
3340.701453,96.455309
3341.665859,96.459490
3342.630264,96.455536
3343.594670,96.441122
3344.559076,96.435596
3345.523482,96.444490
3346.487887,96.468812
3347.452293,96.477132
3348.416699,96.476078
3349.381104,96.476692
3350.345510,96.458316
3351.309916,96.452389
3352.274322,96.461912
3353.238727,96.461621
3354.203133,96.477264
3355.167539,96.504061
3356.131945,96.515213
3357.096350,96.497531
3358.060756,96.486896
3359.025162,96.515143
3359.989568,96.524029
3360.953973,96.515649
3361.918379,96.521123
3362.882785,96.523005
3363.847190,96.527430
3364.811596,96.521714
3365.776002,96.509518
3366.740408,96.513862
3367.704813,96.533013
3368.669219,96.539509
3369.633625,96.511553
3370.598031,96.506373
3371.562436,96.541980
3372.526842,96.571588
3373.491248,96.580318
3374.455653,96.549347
3375.420059,96.515951
3376.384465,96.531713
3377.348871,96.539170
3378.313276,96.531094
3379.277682,96.563194
3380.242088,96.580732
3381.206494,96.563436
3382.170899,96.566329
3383.135305,96.578945
3384.099711,96.594712
3385.064117,96.610781
3386.028522,96.616960
3386.992928,96.614711
3387.957334,96.595736
3388.921739,96.591146
3389.886145,96.600525
3390.850551,96.584980
3391.814957,96.555422
3392.779362,96.538419
3393.743768,96.541491
3394.708174,96.542861
3395.672580,96.544505
3396.636985,96.558757
3397.601391,96.555520
3398.565797,96.543938
3399.530202,96.545469
3400.494608,96.556512
3401.459014,96.572720
3402.423420,96.563620
3403.387825,96.557149
3404.352231,96.585893
3405.316637,96.583461
3406.281043,96.536290
3407.245448,96.512613
3408.209854,96.531534
3409.174260,96.550398
3410.138666,96.562443
3411.103071,96.578946
3412.067477,96.564481
3413.031883,96.551992
3413.996288,96.575727
3414.960694,96.576208
3415.925100,96.542378
3416.889506,96.509334
3417.853911,96.518618
3418.818317,96.565230
3419.782723,96.572381
3420.747129,96.556489
3421.711534,96.570488
3422.675940,96.582981
3423.640346,96.591619
3424.604751,96.606165
3425.569157,96.595289
3426.533563,96.584112
3427.497969,96.600550
3428.462374,96.600838
3429.426780,96.588494
3430.391186,96.591836
3431.355592,96.593254
3432.319997,96.599495
3433.284403,96.604815
3434.248809,96.600457
3435.213215,96.600617
3436.177620,96.585187
3437.142026,96.572159
3438.106432,96.586759
3439.070837,96.603014
3440.035243,96.611705
3440.999649,96.622221
3441.964055,96.637029
3442.928460,96.625602
3443.892866,96.594908
3444.857272,96.588341
3445.821678,96.599226
3446.786083,96.611549
3447.750489,96.612424
3448.714895,96.627645
3449.679301,96.656761
3450.643706,96.652013
3451.608112,96.647468
3452.572518,96.649219
3453.536923,96.636481
3454.501329,96.637834
3455.465735,96.653988
3456.430141,96.677166
3457.394546,96.671574
3458.358952,96.639231
3459.323358,96.652562
3460.287764,96.683414
3461.252169,96.681664
3462.216575,96.669959
3463.180981,96.641892
3464.145386,96.634381
3465.109792,96.681776
3466.074198,96.703916
3467.038604,96.697629
3468.003009,96.710842
3468.967415,96.703927
3469.931821,96.677800
3470.896227,96.665806
3471.860632,96.655851
3472.825038,96.651597
3473.789444,96.671429
3474.753850,96.688058
3475.718255,96.685608
3476.682661,96.697195
3477.647067,96.718927
3478.611472,96.718760
3479.575878,96.684639
3480.540284,96.651334
3481.504690,96.667988
3482.469095,96.694269
3483.433501,96.681916
3484.397907,96.656957
3485.362313,96.648199
3486.326718,96.664562
3487.291124,96.679345
3488.255530,96.654295
3489.219935,96.617466
3490.184341,96.619213
3491.148747,96.657760
3492.113153,96.698124
3493.077558,96.700033
3494.041964,96.667343
3495.006370,96.659280
3495.970776,96.684553
3496.935181,96.689744
3497.899587,96.680870
3498.863993,96.687750
3499.828399,96.681737
3500.792804,96.674880
3501.757210,96.677306
3502.721616,96.661797
3503.686021,96.680019
3504.650427,96.709382
3505.614833,96.689583
3506.579239,96.682258
3507.543644,96.689994
3508.508050,96.700377
3509.472456,96.726567
3510.436862,96.731776
3511.401267,96.736470
3512.365673,96.739128
3513.330079,96.727802
3514.294484,96.736739
3515.258890,96.723836
3516.223296,96.700314
3517.187702,96.730598
3518.152107,96.735455
3519.116513,96.678025
3520.080919,96.667914
3521.045325,96.701184
3522.009730,96.705666
3522.974136,96.709101
3523.938542,96.713952
3524.902948,96.714834
3525.867353,96.716302
3526.831759,96.692718
3527.796165,96.704626
3528.760570,96.751121
3529.724976,96.738817
3530.689382,96.697298
3531.653788,96.672577
3532.618193,96.680538
3533.582599,96.734531
3534.547005,96.769343
3535.511411,96.756499
3536.475816,96.737691
3537.440222,96.729273
3538.404628,96.729406
3539.369034,96.737198
3540.333439,96.748932
3541.297845,96.735770
3542.262251,96.694884
3543.226656,96.672525
3544.191062,96.688971
3545.155468,96.741820
3546.119874,96.785609
3547.084279,96.769117
3548.048685,96.717206
3549.013091,96.664212
3549.977497,96.633137
3550.941902,96.623198
3551.906308,96.634486
3552.870714,96.689432
3553.835119,96.726529
3554.799525,96.710653
3555.763931,96.702780
3556.728337,96.698416
3557.692742,96.677106
3558.657148,96.695659
3559.621554,96.748269
3560.585960,96.748286
3561.550365,96.728699
3562.514771,96.741240
3563.479177,96.729228
3564.443583,96.708160
3565.407988,96.714349
3566.372394,96.740203
3567.336800,96.782709
3568.301205,96.782286
3569.265611,96.746150
3570.230017,96.745179
3571.194423,96.756876
3572.158828,96.749390
3573.123234,96.741422
3574.087640,96.750975
3575.052046,96.758221
3576.016451,96.744530
3576.980857,96.744072
3577.945263,96.748426
3578.909668,96.717495
3579.874074,96.677037
3580.838480,96.665657
3581.802886,96.689512
3582.767291,96.704837
3583.731697,96.692028
3584.696103,96.703832
3585.660509,96.729820
3586.624914,96.740115
3587.589320,96.746823
3588.553726,96.740397
3589.518132,96.736442
3590.482537,96.727049
3591.446943,96.697885
3592.411349,96.708184
3593.375754,96.751456
3594.340160,96.766597
3595.304566,96.749133
3596.268972,96.722500
3597.233377,96.721744
3598.197783,96.740158
3599.162189,96.751761
3600.126595,96.758783
3601.091000,96.748617
3602.055406,96.730748
3603.019812,96.732383
3603.984217,96.737804
3604.948623,96.704659
3605.913029,96.677511
3606.877435,96.721500
3607.841840,96.727177
3608.806246,96.673840
3609.770652,96.695146
3610.735058,96.745044
3611.699463,96.743951
3612.663869,96.709650
3613.628275,96.652228
3614.592681,96.636331
3615.557086,96.713076
3616.521492,96.781205
3617.485898,96.772077
3618.450303,96.756076
3619.414709,96.738214
3620.379115,96.730457
3621.343521,96.755757
3622.307926,96.729896
3623.272332,96.697269
3624.236738,96.725752
3625.201144,96.735781
3626.165549,96.734757
3627.129955,96.760027
3628.094361,96.753675
3629.058767,96.721800
3630.023172,96.718501
3630.987578,96.730904
3631.951984,96.741070
3632.916389,96.741226
3633.880795,96.739219
3634.845201,96.759616
3635.809607,96.776047
3636.774012,96.756110
3637.738418,96.717200
3638.702824,96.695490
3639.667230,96.674427
3640.631635,96.643247
3641.596041,96.660266
3642.560447,96.704404
3643.524852,96.724037
3644.489258,96.738593
3645.453664,96.739333
3646.418070,96.709957
3647.382475,96.677720
3648.346881,96.689753
3649.311287,96.736731
3650.275693,96.747050
3651.240098,96.719184
3652.204504,96.695588
3653.168910,96.696073
3654.133316,96.708173
3655.097721,96.670864
3656.062127,96.628934
3657.026533,96.657159
3657.990938,96.672759
3658.955344,96.642215
3659.919750,96.629276
3660.884156,96.661366
3661.848561,96.687599
3662.812967,96.667549
3663.777373,96.663240
3664.741779,96.689188
3665.706184,96.729829
3666.670590,96.734131
3667.634996,96.663981
3668.599401,96.629557
3669.563807,96.641933
3670.528213,96.669720
3671.492619,96.695793
3672.457024,96.666927
3673.421430,96.655656
3674.385836,96.670766
3675.350242,96.675697
3676.314647,96.676075
3677.279053,96.655568
3678.243459,96.647893
3679.207865,96.660871
3680.172270,96.673437
3681.136676,96.666868
3682.101082,96.663060
3683.065487,96.695609
3684.029893,96.718947
3684.994299,96.698028
3685.958705,96.655933
3686.923110,96.651134
3687.887516,96.675985
3688.851922,96.683447
3689.816328,96.673285
3690.780733,96.641963
3691.745139,96.630179
3692.709545,96.661343
3693.673951,96.697837
3694.638356,96.703704
3695.602762,96.674694
3696.567168,96.651312
3697.531573,96.635671
3698.495979,96.642887
3699.460385,96.691892
3700.424791,96.701707
3701.389196,96.633954
3702.353602,96.600504
3703.318008,96.645203
3704.282414,96.654793
3705.246819,96.634799
3706.211225,96.648177
3707.175631,96.650420
3708.140036,96.639022
3709.104442,96.632693
3710.068848,96.642312
3711.033254,96.672171
3711.997659,96.695743
3712.962065,96.711315
3713.926471,96.698086
3714.890877,96.663904
3715.855282,96.658503
3716.819688,96.676346
3717.784094,96.681855
3718.748500,96.661441
3719.712905,96.655244
3720.677311,96.677618
3721.641717,96.683584
3722.606122,96.658282
3723.570528,96.627810
3724.534934,96.621299
3725.499340,96.594261
3726.463745,96.559692
3727.428151,96.591550
3728.392557,96.602887
3729.356963,96.593799
3730.321368,96.648830
3731.285774,96.675783
3732.250180,96.641690
3733.214585,96.616935
3734.178991,96.615270
3735.143397,96.623458
3736.107803,96.641024
3737.072208,96.655276
3738.036614,96.622327
3739.001020,96.579846
3739.965426,96.566163
3740.929831,96.552169
3741.894237,96.562933
3742.858643,96.595066
3743.823049,96.617549
3744.787454,96.611808
3745.751860,96.571832
3746.716266,96.582263
3747.680671,96.615421
3748.645077,96.574550
3749.609483,96.541810
3750.573889,96.572295
3751.538294,96.612422
3752.502700,96.633046
3753.467106,96.594529
3754.431512,96.542226
3755.395917,96.551628
3756.360323,96.591411
3757.324729,96.615069
3758.289134,96.605470
3759.253540,96.575277
3760.217946,96.580979
3761.182352,96.601400
3762.146757,96.585415
3763.111163,96.594062
3764.075569,96.641373
3765.039975,96.645984
3766.004380,96.611325
3766.968786,96.594432
3767.933192,96.598117
3768.897598,96.585275
3769.862003,96.565871
3770.826409,96.584982
3771.790815,96.607520
3772.755220,96.605209
3773.719626,96.610976
3774.684032,96.608998
3775.648438,96.585066
3776.612843,96.577722
3777.577249,96.586153
3778.541655,96.584970
3779.506061,96.589684
3780.470466,96.595980
3781.434872,96.592219
3782.399278,96.590482
3783.363684,96.562732
3784.328089,96.539674
3785.292495,96.583673
3786.256901,96.616899
3787.221306,96.588024
3788.185712,96.562312
3789.150118,96.563135
3790.114524,96.574569
3791.078929,96.591628
3792.043335,96.589007
3793.007741,96.548412
3793.972147,96.524393
3794.936552,96.551867
3795.900958,96.567767
3796.865364,96.546979
3797.829769,96.540314
3798.794175,96.569326
3799.758581,96.603801
3800.722987,96.605561
3801.687392,96.571230
3802.651798,96.550247
3803.616204,96.575059
3804.580610,96.595677
3805.545015,96.580600
3806.509421,96.575018
3807.473827,96.594840
3808.438233,96.600316
3809.402638,96.594267
3810.367044,96.619988
3811.331450,96.630970
3812.295855,96.581382
3813.260261,96.540123
3814.224667,96.535939
3815.189073,96.565215
3816.153478,96.603567
3817.117884,96.574941
3818.082290,96.534563
3819.046696,96.548063
3820.011101,96.565496
3820.975507,96.583332
3821.939913,96.601917
3822.904318,96.576896
3823.868724,96.544883
3824.833130,96.571198
3825.797536,96.618665
3826.761941,96.617693
3827.726347,96.572430
3828.690753,96.528665
3829.655159,96.534940
3830.619564,96.549365
3831.583970,96.531410
3832.548376,96.577417
3833.512782,96.632313
3834.477187,96.591314
3835.441593,96.570968
3836.405999,96.593051
3837.370404,96.586577
3838.334810,96.584513
3839.299216,96.590900
3840.263622,96.574099
3841.228027,96.540937
3842.192433,96.537595
3843.156839,96.579561
3844.121245,96.624280
3845.085650,96.627146
3846.050056,96.606781
3847.014462,96.596679
3847.978867,96.570490
3848.943273,96.567667
3849.907679,96.587434
3850.872085,96.557868
3851.836490,96.565504
3852.800896,96.619734
3853.765302,96.622859
3854.729708,96.616865
3855.694113,96.619604
3856.658519,96.607771
3857.622925,96.589397
3858.587331,96.578514
3859.551736,96.598349
3860.516142,96.595406
3861.480548,96.563009
3862.444953,96.594404
3863.409359,96.615079
3864.373765,96.568379
3865.338171,96.563976
3866.302576,96.588400
3867.266982,96.598861
3868.231388,96.595754
3869.195794,96.582961
3870.160199,96.620681
3871.124605,96.639467
3872.089011,96.590068
3873.053417,96.574385
3874.017822,96.599380
3874.982228,96.621309
3875.946634,96.641228
3876.911039,96.647119
3877.875445,96.631307
3878.839851,96.623878
3879.804257,96.653682
3880.768662,96.668424
3881.733068,96.612473
3882.697474,96.566483
3883.661880,96.596573
3884.626285,96.623498
3885.590691,96.605457
3886.555097,96.578919
3887.519502,96.565552
3888.483908,96.577821
3889.448314,96.594367
3890.412720,96.613344
3891.377125,96.643725
3892.341531,96.629697
3893.305937,96.571996
3894.270343,96.554115
3895.234748,96.595673
3896.199154,96.621023
3897.163560,96.595124
3898.127966,96.578701
3899.092371,96.588896
3900.056777,96.604936
3901.021183,96.643326
3901.985588,96.666964
3902.949994,96.665666
3903.914400,96.681442
3904.878806,96.658842
3905.843211,96.609456
3906.807617,96.614611
3907.772023,96.623746
3908.736429,96.614098
3909.700834,96.623816
3910.665240,96.624570
3911.629646,96.611460
3912.594051,96.595574
3913.558457,96.574552
3914.522863,96.597801
3915.487269,96.656114
3916.451674,96.654403
3917.416080,96.605475
3918.380486,96.602632
3919.344892,96.623299
3920.309297,96.620445
3921.273703,96.626835
3922.238109,96.629343
3923.202515,96.613532
3924.166920,96.603349
3925.131326,96.602550
3926.095732,96.621151
3927.060137,96.618486
3928.024543,96.603408
3928.988949,96.636602
3929.953355,96.658760
3930.917760,96.639220
3931.882166,96.620988
3932.846572,96.602313
3933.810978,96.576661
3934.775383,96.591063
3935.739789,96.660903
3936.704195,96.704212
3937.668600,96.703502
3938.633006,96.691929
3939.597412,96.670668
3940.561818,96.656246
3941.526223,96.636720
3942.490629,96.625823
3943.455035,96.650898
3944.419441,96.650927
3945.383846,96.611037
3946.348252,96.617327
3947.312658,96.650510
3948.277064,96.654862
3949.241469,96.662676
3950.205875,96.638831
3951.170281,96.620290
3952.134686,96.671426
3953.099092,96.710243
3954.063498,96.730063
3955.027904,96.723132
3955.992309,96.681623
3956.956715,96.664933
3957.921121,96.650050
3958.885527,96.641654
3959.849932,96.637342
3960.814338,96.632699
3961.778744,96.660150
3962.743150,96.660675
3963.707555,96.643043
3964.671961,96.665697
3965.636367,96.687873
3966.600772,96.684297
3967.565178,96.673062
3968.529584,96.652096
3969.493990,96.625222
3970.458395,96.631260
3971.422801,96.657644
3972.387207,96.667854
3973.351613,96.682282
3974.316018,96.703122
3975.280424,96.720137
3976.244830,96.717771
3977.209235,96.681667
3978.173641,96.654945
3979.138047,96.668834
3980.102453,96.691650
3981.066858,96.670088
3982.031264,96.633707
3982.995670,96.647129
3983.960076,96.664022
3984.924481,96.663229
3985.888887,96.673864
3986.853293,96.673730
3987.817699,96.668850
3988.782104,96.661111
3989.746510,96.642794
3990.710916,96.624148
3991.675321,96.614090
3992.639727,96.643234
3993.604133,96.669223
3994.568539,96.666197
3995.532944,96.702701
3996.497350,96.751704
3997.461756,96.758190
3998.426162,96.752467
3999.390567,96.753594
4000.354973,96.742717
