XLabel,Wavenumber
YLabel,%Transmittance
FileType,%Transmittance
DisplayDirection,20300
PeakDirection,20311
549.711267,90.951056
550.675673,91.120474
551.640078,91.631357
552.604484,92.134027
553.568890,92.550779
554.533295,93.102170
555.497701,93.632272
556.462107,93.420457
557.426513,92.973557
558.390918,92.744963
559.355324,92.885313
560.319730,93.441309
561.284136,93.547639
562.248541,93.141972
563.212947,92.890544
564.177353,92.884591
565.141758,92.451219
566.106164,91.568693
567.070570,91.375473
568.034976,91.812993
568.999381,92.213896
569.963787,92.336462
570.928193,92.020330
571.892599,91.802475
572.857004,91.929322
573.821410,92.314749
574.785816,92.747641
575.750222,92.616928
576.714627,92.328034
577.679033,92.447693
578.643439,92.473418
579.607844,92.223747
580.572250,92.196233
581.536656,92.420940
582.501062,92.493595
583.465467,92.382599
584.429873,92.286349
585.394279,92.110314
586.358685,91.751747
587.323090,91.446309
588.287496,91.156993
589.251902,90.680807
590.216307,90.207918
591.180713,89.888850
592.145119,89.750575
593.109525,89.427032
594.073930,88.762293
595.038336,88.465187
596.002742,88.431394
596.967148,87.975236
597.931553,87.317994
598.895959,86.808475
599.860365,86.418341
600.824771,86.061683
601.789176,85.597622
602.753582,84.990208
603.717988,84.442460
604.682393,83.893198
605.646799,83.040806
606.611205,81.870978
607.575611,80.205254
608.540016,77.913853
609.504422,75.324209
610.468828,72.643081
611.433234,70.050996
612.397639,67.412971
613.362045,64.402526
614.326451,62.349657
615.290857,63.877282
616.255262,69.571597
617.219668,76.782508
618.184074,82.565838
619.148479,86.312257
620.112885,88.742630
621.077291,90.386909
622.041697,91.533604
623.006102,92.354795
623.970508,93.050360
624.934914,93.643857
625.899320,93.990661
626.863725,94.236349
627.828131,94.551035
628.792537,94.815945
629.756942,94.909395
630.721348,94.933113
631.685754,95.031364
632.650160,95.081328
633.614565,94.945731
634.578971,94.849903
635.543377,94.914739
636.507783,94.927314
637.472188,94.862526
638.436594,94.840029
639.401000,94.850612
640.365406,94.838083
641.329811,94.781533
642.294217,94.775448
643.258623,94.818059
644.223028,94.811313
645.187434,94.763621
646.151840,94.704009
647.116246,94.704301
648.080651,94.757281
649.045057,94.756515
650.009463,94.695713
650.973869,94.605513
651.938274,94.539192
652.902680,94.505610
653.867086,94.465219
654.831491,94.447395
655.795897,94.449313
656.760303,94.437843
657.724709,94.406192
658.689114,94.359591
659.653520,94.321031
660.617926,94.298930
661.582332,94.293128
662.546737,94.273049
663.511143,94.232702
664.475549,94.211768
665.439955,94.177082
666.404360,94.126155
667.368766,94.029013
668.333172,93.790818
669.297577,93.586100
670.261983,93.523194
671.226389,93.446180
672.190795,93.331575
673.155200,93.196007
674.119606,93.015409
675.084012,92.852384
676.048418,92.753879
677.012823,92.737557
677.977229,92.765841
678.941635,92.786749
679.906040,92.846128
680.870446,92.973129
681.834852,93.090225
682.799258,93.157263
683.763663,93.230158
684.728069,93.295054
685.692475,93.325565
686.656881,93.371017
687.621286,93.428955
688.585692,93.490720
689.550098,93.564093
690.514504,93.594850
691.478909,93.572392
692.443315,93.577628
693.407721,93.587345
694.372126,93.534339
695.336532,93.525087
696.300938,93.580986
697.265344,93.572678
698.229749,93.529335
699.194155,93.528790
700.158561,93.528280
701.122967,93.467050
702.087372,93.369101
703.051778,93.293505
704.016184,93.207651
704.980590,93.098634
705.944995,93.031843
706.909401,92.999389
707.873807,92.963209
708.838212,92.903672
709.802618,92.811706
710.767024,92.706054
711.731430,92.573681
712.695835,92.454968
713.660241,92.412213
714.624647,92.369505
715.589053,92.294044
716.553458,92.246564
717.517864,92.166709
718.482270,92.023951
719.446675,91.914575
720.411081,91.819034
721.375487,91.707221
722.339893,91.599348
723.304298,91.449140
724.268704,91.285778
725.233110,91.126681
726.197516,90.946607
727.161921,90.763073
728.126327,90.531318
729.090733,90.241497
730.055139,89.957249
731.019544,89.677270
731.983950,89.347609
732.948356,88.985608
733.912761,88.605540
734.877167,88.234751
735.841573,87.864459
736.805979,87.333412
737.770384,86.928591
738.734790,86.933341
739.699196,86.897996
740.663602,86.691703
741.628007,86.536749
742.592413,86.360384
743.556819,86.163606
744.521224,85.979199
745.485630,85.774467
746.450036,85.519415
747.414442,85.191538
748.378847,84.832595
749.343253,84.443874
750.307659,84.009975
751.272065,83.505366
752.236470,82.872046
753.200876,82.100236
754.165282,81.161764
755.129688,79.968385
756.094093,78.458188
757.058499,76.554330
758.022905,74.107247
758.987310,70.888798
759.951716,66.765860
760.916122,61.951337
761.880528,57.221292
762.844933,54.275985
763.809339,55.026668
764.773745,59.574186
765.738151,65.993415
766.702556,72.254856
767.666962,77.355974
768.631368,81.178473
769.595773,84.009786
770.560179,86.127510
771.524585,87.711447
772.488991,88.915030
773.453396,89.849248
774.417802,90.581681
775.382208,91.144208
776.346614,91.570821
777.311019,91.931107
778.275425,92.233632
779.239831,92.432720
780.204237,92.531828
781.168642,92.545099
782.133048,92.468624
783.097454,92.319717
784.061859,92.077348
785.026265,91.702448
785.990671,91.194579
786.955077,90.526106
787.919482,89.608883
788.883888,88.305670
789.848294,86.424233
790.812700,83.633214
791.777105,79.944447
792.741511,75.692626
793.705917,70.816080
794.670323,66.669091
795.634728,66.164344
796.599134,69.528125
797.563540,74.076068
798.527945,77.789888
799.492351,80.203813
800.456757,81.614765
801.421163,82.434513
802.385568,82.901208
803.349974,83.168239
804.314380,83.331489
805.278786,83.418760
806.243191,83.439928
807.207597,83.438650
808.172003,83.419303
809.136408,83.355820
810.100814,83.274972
811.065220,83.200131
812.029626,83.136160
812.994031,83.092167
813.958437,83.035668
814.922843,82.918565
815.887249,82.739800
816.851654,82.487860
817.816060,82.150790
818.780466,81.726441
819.744872,81.187594
820.709277,80.549814
821.673683,79.825299
822.638089,79.017944
823.602494,78.184647
824.566900,77.376650
825.531306,76.622345
826.495712,75.930040
827.460117,75.315938
828.424523,74.792833
829.388929,74.333815
830.353335,73.910701
831.317740,73.479899
832.282146,72.988706
833.246552,72.405880
834.210957,71.701099
835.175363,70.850164
836.139769,69.850758
837.104175,68.719607
838.068580,67.523644
839.032986,66.444490
839.997392,65.737787
840.961798,65.596339
841.926203,65.998460
842.890609,66.659095
843.855015,67.250345
844.819421,67.693369
845.783826,68.178366
846.748232,68.883123
847.712638,69.723611
848.677043,70.405943
849.641449,70.617014
850.605855,70.146189
851.570261,68.985177
852.534666,67.487259
853.499072,66.311653
854.463478,66.039851
855.427884,66.780194
856.392289,68.112817
857.356695,69.465592
858.321101,70.451767
859.285507,70.898130
860.249912,70.767722
861.214318,70.019272
862.178724,68.569059
863.143129,66.351613
864.107535,63.301650
865.071941,59.377004
866.036347,54.666895
867.000752,49.377437
867.965158,44.009933
868.929564,39.398627
869.893970,36.258185
870.858375,34.861752
871.822781,35.164225
872.787187,36.803593
873.751592,39.202233
874.715998,41.900570
875.680404,44.614567
876.644810,47.155818
877.609215,49.455349
878.573621,51.560515
879.538027,53.550301
880.502433,55.481048
881.466838,57.384674
882.431244,59.284365
883.395650,61.185863
884.360056,63.126129
885.324461,65.158591
886.288867,67.331162
887.253273,69.646933
888.217678,71.985883
889.182084,74.208211
890.146490,76.258669
891.110896,78.110928
892.075301,79.750458
893.039707,81.167977
894.004113,82.375562
894.968519,83.426653
895.932924,84.365695
896.897330,85.212540
897.861736,85.962736
898.826141,86.579671
899.790547,87.031639
900.754953,87.352698
901.719359,87.598134
902.683764,87.799108
903.648170,87.998178
904.612576,88.238963
905.576982,88.550359
906.541387,88.933166
907.505793,89.373466
908.470199,89.875922
909.434605,90.434834
910.399010,91.036912
911.363416,91.669988
912.327822,92.313741
913.292227,92.950519
914.256633,93.575645
915.221039,94.186617
916.185445,94.755866
917.149850,95.263572
918.114256,95.705619
919.078662,96.067244
920.043068,96.358135
921.007473,96.594308
921.971879,96.770498
922.936285,96.888759
923.900690,96.968375
924.865096,97.026190
925.829502,97.055678
926.793908,97.057855
927.758313,97.048208
928.722719,97.023921
929.687125,96.981862
930.651531,96.925405
931.615936,96.855991
932.580342,96.775772
933.544748,96.687190
934.509154,96.597235
935.473559,96.497737
936.437965,96.380637
937.402371,96.254464
938.366776,96.106068
939.331182,95.927923
940.295588,95.739443
941.259994,95.531443
942.224399,95.284362
943.188805,95.020987
944.153211,94.758792
945.117617,94.487870
946.082022,94.226441
947.046428,94.005694
948.010834,93.833516
948.975240,93.703805
949.939645,93.617473
950.904051,93.593635
951.868457,93.632117
952.832862,93.720273
953.797268,93.852429
954.761674,93.996809
955.726080,94.122436
956.690485,94.206593
957.654891,94.208943
958.619297,94.127788
959.583703,93.992918
960.548108,93.792605
961.512514,93.515115
962.476920,93.172473
963.441325,92.742245
964.405731,92.201846
965.370137,91.551645
966.334543,90.768132
967.298948,89.824411
968.263354,88.701118
969.227760,87.335998
970.192166,85.649001
971.156571,83.628304
972.120977,81.417716
973.085383,79.386891
974.049789,78.010730
975.014194,77.621529
975.978600,78.254645
976.943006,79.610636
977.907411,81.262353
978.871817,82.892878
979.836223,84.337506
980.800629,85.539443
981.765034,86.487427
982.729440,87.211765
983.693846,87.760598
984.658252,88.170304
985.622657,88.475860
986.587063,88.688763
987.551469,88.828841
988.515874,88.922822
989.480280,88.973247
990.444686,88.987898
991.409092,88.977393
992.373497,88.947388
993.337903,88.895367
994.302309,88.825495
995.266715,88.747865
996.231120,88.648827
997.195526,88.524330
998.159932,88.381981
999.124338,88.223251
1000.088743,88.055348
1001.053149,87.874250
1002.017555,87.675230
1002.981960,87.464664
1003.946366,87.246829
1004.910772,87.023619
1005.875178,86.785131
1006.839583,86.528189
1007.803989,86.267386
1008.768395,85.989665
1009.732801,85.678721
1010.697206,85.352056
1011.661612,85.012161
1012.626018,84.657464
1013.590423,84.295528
1014.554829,83.922377
1015.519235,83.547666
1016.483641,83.177062
1017.448046,82.806559
1018.412452,82.438072
1019.376858,82.074992
1020.341264,81.732041
1021.305669,81.407265
1022.270075,81.092052
1023.234481,80.790203
1024.198887,80.502372
1025.163292,80.236102
1026.127698,79.991653
1027.092104,79.760539
1028.056509,79.547229
1029.020915,79.352548
1029.985321,79.164734
1030.949727,78.980830
1031.914132,78.799884
1032.878538,78.604028
1033.842944,78.389038
1034.807350,78.159238
1035.771755,77.900852
1036.736161,77.608972
1037.700567,77.285928
1038.664973,76.925354
1039.629378,76.537175
1040.593784,76.138081
1041.558190,75.718354
1042.522595,75.258355
1043.487001,74.767151
1044.451407,74.269865
1045.415813,73.765660
1046.380218,73.247355
1047.344624,72.721740
1048.309030,72.186707
1049.273436,71.650790
1050.237841,71.121209
1051.202247,70.595828
1052.166653,70.086188
1053.131058,69.584898
1054.095464,69.092053
1055.059870,68.632108
1056.024276,68.194711
1056.988681,67.770403
1057.953087,67.361341
1058.917493,66.950210
1059.881899,66.527607
1060.846304,66.081895
1061.810710,65.589636
1062.775116,65.045335
1063.739522,64.462591
1064.703927,63.859156
1065.668333,63.254154
1066.632739,62.685081
1067.597144,62.224511
1068.561550,61.967054
1069.525956,61.984101
1070.490362,62.335977
1071.454767,63.070328
1072.419173,64.156290
1073.383579,65.500586
1074.347985,66.978402
1075.312390,68.426486
1076.276796,69.721185
1077.241202,70.820587
1078.205607,71.719999
1079.170013,72.452003
1080.134419,73.080580
1081.098825,73.649904
1082.063230,74.170098
1083.027636,74.641838
1083.992042,75.059881
1084.956448,75.405153
1085.920853,75.674184
1086.885259,75.889902
1087.849665,76.051042
1088.814071,76.148895
1089.778476,76.207154
1090.742882,76.236215
1091.707288,76.233049
1092.671693,76.202108
1093.636099,76.131930
1094.600505,76.016088
1095.564911,75.872950
1096.529316,75.721366
1097.493722,75.560253
1098.458128,75.382691
1099.422534,75.199239
1100.386939,75.025268
1101.351345,74.857755
1102.315751,74.684680
1103.280156,74.502696
1104.244562,74.317449
1105.208968,74.142514
1106.173374,73.975587
1107.137779,73.798213
1108.102185,73.627175
1109.066591,73.486052
1110.030997,73.363573
1110.995402,73.250079
1111.959808,73.141094
1112.924214,73.030213
1113.888620,72.914139
1114.853025,72.786741
1115.817431,72.652544
1116.781837,72.529968
1117.746242,72.420997
1118.710648,72.310190
1119.675054,72.194211
1120.639460,72.071954
1121.603865,71.933274
1122.568271,71.777584
1123.532677,71.606643
1124.497083,71.410692
1125.461488,71.176076
1126.425894,70.898252
1127.390300,70.566883
1128.354706,70.160718
1129.319111,69.683433
1130.283517,69.147601
1131.247923,68.546030
1132.212328,67.879095
1133.176734,67.154109
1134.141140,66.367011
1135.105546,65.510758
1136.069951,64.598005
1137.034357,63.650704
1137.998763,62.680288
1138.963169,61.710536
1139.927574,60.765553
1140.891980,59.856292
1141.856386,59.001279
1142.820791,58.209856
1143.785197,57.483587
1144.749603,56.828448
1145.714009,56.248489
1146.678414,55.758103
1147.642820,55.382632
1148.607226,55.149540
1149.571632,55.081582
1150.536037,55.187877
1151.500443,55.455890
1152.464849,55.836444
1153.429255,56.254460
1154.393660,56.632353
1155.358066,56.898377
1156.322472,56.997650
1157.286877,56.902918
1158.251283,56.611525
1159.215689,56.140981
1160.180095,55.514566
1161.144500,54.750750
1162.108906,53.885202
1163.073312,52.957140
1164.037718,51.976528
1165.002123,50.951982
1165.966529,49.902328
1166.930935,48.843412
1167.895340,47.789636
1168.859746,46.753076
1169.824152,45.744097
1170.788558,44.766340
1171.752963,43.818135
1172.717369,42.904347
1173.681775,42.020738
1174.646181,41.157867
1175.610586,40.323227
1176.574992,39.553569
1177.539398,38.894324
1178.503804,38.437642
1179.468209,38.327459
1180.432615,38.680725
1181.397021,39.512121
1182.361426,40.718595
1183.325832,42.138345
1184.290238,43.627023
1185.254644,45.085026
1186.219049,46.463277
1187.183455,47.751154
1188.147861,48.943067
1189.112267,50.042079
1190.076672,51.054260
1191.041078,51.983486
1192.005484,52.830470
1192.969889,53.589172
1193.934295,54.263194
1194.898701,54.859721
1195.863107,55.373006
1196.827512,55.789851
1197.791918,56.102439
1198.756324,56.329883
1199.720730,56.485382
1200.685135,56.553903
1201.649541,56.536380
1202.613947,56.443421
1203.578353,56.273297
1204.542758,56.035906
1205.507164,55.730652
1206.471570,55.347649
1207.435975,54.917053
1208.400381,54.486460
1209.364787,54.093842
1210.329193,53.798909
1211.293598,53.678685
1212.258004,53.799034
1213.222410,54.198056
1214.186816,54.896052
1215.151221,55.883760
1216.115627,57.101157
1217.080033,58.486499
1218.044439,59.983146
1219.008844,61.518192
1219.973250,63.040081
1220.937656,64.513955
1221.902061,65.902344
1222.866467,67.174206
1223.830873,68.328772
1224.795279,69.379829
1225.759684,70.311789
1226.724090,71.123089
1227.688496,71.834196
1228.652902,72.453502
1229.617307,73.006113
1230.581713,73.506837
1231.546119,73.952631
1232.510524,74.360830
1233.474930,74.740324
1234.439336,75.086986
1235.403742,75.405034
1236.368147,75.697390
1237.332553,75.964791
1238.296959,76.210448
1239.261365,76.443387
1240.225770,76.663885
1241.190176,76.872864
1242.154582,77.088413
1243.118988,77.310665
1244.083393,77.536605
1245.047799,77.787654
1246.012205,78.070260
1246.976610,78.383608
1247.941016,78.734926
1248.905422,79.122305
1249.869828,79.547393
1250.834233,80.007328
1251.798639,80.484186
1252.763045,80.974005
1253.727451,81.481149
1254.691856,81.988349
1255.656262,82.484477
1256.620668,82.978871
1257.585073,83.458041
1258.549479,83.898208
1259.513885,84.291028
1260.478291,84.630340
1261.442696,84.918149
1262.407102,85.153540
1263.371508,85.331569
1264.335914,85.462106
1265.300319,85.551596
1266.264725,85.599687
1267.229131,85.609864
1268.193537,85.586942
1269.157942,85.528585
1270.122348,85.429665
1271.086754,85.306255
1272.051159,85.172671
1273.015565,85.030663
1273.979971,84.906928
1274.944377,84.821345
1275.908782,84.772035
1276.873188,84.769227
1277.837594,84.812314
1278.802000,84.895688
1279.766405,85.025097
1280.730811,85.189781
1281.695217,85.377974
1282.659622,85.587448
1283.624028,85.813327
1284.588434,86.047481
1285.552840,86.275866
1286.517245,86.489726
1287.481651,86.686617
1288.446057,86.864877
1289.410463,87.022709
1290.374868,87.160339
1291.339274,87.304717
1292.303680,87.490665
1293.268086,87.732656
1294.232491,88.042513
1295.196897,88.425804
1296.161303,88.866832
1297.125708,89.339511
1298.090114,89.824609
1299.054520,90.301444
1300.018926,90.749381
1300.983331,91.169478
1301.947737,91.557323
1302.912143,91.901647
1303.876549,92.210182
1304.840954,92.487017
1305.805360,92.732917
1306.769766,92.950035
1307.734172,93.126751
1308.698577,93.267477
1309.662983,93.395468
1310.627389,93.507263
1311.591794,93.595874
1312.556200,93.676170
1313.520606,93.745821
1314.485012,93.803291
1315.449417,93.861170
1316.413823,93.907794
1317.378229,93.933180
1318.342635,93.949720
1319.307040,93.960993
1320.271446,93.963115
1321.235852,93.954641
1322.200257,93.938469
1323.164663,93.925533
1324.129069,93.910733
1325.093475,93.882824
1326.057880,93.854915
1327.022286,93.833948
1327.986692,93.811131
1328.951098,93.784712
1329.915503,93.756873
1330.879909,93.725003
1331.844315,93.688962
1332.808721,93.661681
1333.773126,93.649181
1334.737532,93.652299
1335.701938,93.678353
1336.666343,93.719401
1337.630749,93.762553
1338.595155,93.809642
1339.559561,93.866521
1340.523966,93.924682
1341.488372,93.967731
1342.452778,93.998607
1343.417184,94.028382
1344.381589,94.055239
1345.345995,94.080823
1346.310401,94.111807
1347.274806,94.145449
1348.239212,94.184038
1349.203618,94.225896
1350.168024,94.259162
1351.132429,94.288732
1352.096835,94.321939
1353.061241,94.345974
1354.025647,94.352201
1354.990052,94.345404
1355.954458,94.314263
1356.918864,94.247474
1357.883270,94.145232
1358.847675,94.002976
1359.812081,93.820788
1360.776487,93.578979
1361.740892,93.257727
1362.705298,92.858120
1363.669704,92.366510
1364.634110,91.781433
1365.598515,91.114679
1366.562921,90.381608
1367.527327,89.601674
1368.491733,88.764814
1369.456138,87.867261
1370.420544,86.916795
1371.384950,85.883928
1372.349355,84.742071
1373.313761,83.479359
1374.278167,82.073399
1375.242573,80.507402
1376.206978,78.779670
1377.171384,76.923247
1378.135790,75.000188
1379.100196,73.078889
1380.064601,71.302819
1381.029007,69.927739
1381.993413,69.211226
1382.957819,69.252936
1383.922224,69.893067
1384.886630,70.815289
1385.851036,71.722435
1386.815441,72.461662
1387.779847,72.973546
1388.744253,73.204114
1389.708659,73.164322
1390.673064,72.883170
1391.637470,72.365159
1392.601876,71.638355
1393.566282,70.769353
1394.530687,69.787716
1395.495093,68.724533
1396.459499,67.665410
1397.423905,66.681196
1398.388310,65.835527
1399.352716,65.179496
1400.317122,64.730650
1401.281527,64.513367
1402.245933,64.556842
1403.210339,64.843738
1404.174745,65.355247
1405.139150,66.083834
1406.103556,66.964207
1407.067962,67.977198
1408.032368,69.147543
1408.996773,70.470624
1409.961179,71.975658
1410.925585,73.669250
1411.889990,75.545249
1412.854396,77.590695
1413.818802,79.716196
1414.783208,81.794747
1415.747613,83.664892
1416.712019,85.212180
1417.676425,86.359730
1418.640831,87.067449
1419.605236,87.304022
1420.569642,87.031664
1421.534048,86.350903
1422.498454,85.572131
1423.462859,85.122232
1424.427265,85.214434
1425.391671,85.779969
1426.356076,86.625796
1427.320482,87.549035
1428.284888,88.353594
1429.249294,88.951916
1430.213699,89.408832
1431.178105,89.910537
1432.142511,90.606309
1433.106917,91.430199
1434.071322,92.239702
1435.035728,92.959059
1436.000134,93.590821
1436.964539,94.148396
1437.928945,94.603350
1438.893351,94.986054
1439.857757,95.319097
1440.822162,95.603180
1441.786568,95.875700
1442.750974,96.133330
1443.715380,96.371114
1444.679785,96.582448
1445.644191,96.740280
1446.608597,96.852233
1447.573003,96.912930
1448.537408,96.900521
1449.501814,96.792641
1450.466220,96.588674
1451.430625,96.342714
1452.395031,96.116898
1453.359437,95.987777
1454.323843,96.034090
1455.288248,96.256189
1456.252654,96.586843
1457.217060,96.920787
1458.181466,97.195986
1459.145871,97.437591
1460.110277,97.631632
1461.074683,97.781069
1462.039089,97.911807
1463.003494,98.014046
1463.967900,98.098764
1464.932306,98.165912
1465.896711,98.216049
1466.861117,98.263959
1467.825523,98.306925
1468.789929,98.345299
1469.754334,98.374663
1470.718740,98.396645
1471.683146,98.425328
1472.647552,98.462483
1473.611957,98.489101
1474.576363,98.509795
1475.540769,98.542825
1476.505174,98.563273
1477.469580,98.574269
1478.433986,98.600600
1479.398392,98.622504
1480.362797,98.635149
1481.327203,98.651346
1482.291609,98.672447
1483.256015,98.690312
1484.220420,98.695896
1485.184826,98.703957
1486.149232,98.721990
1487.113638,98.738358
1488.078043,98.749686
1489.042449,98.758301
1490.006855,98.772522
1490.971260,98.782956
1491.935666,98.781414
1492.900072,98.788920
1493.864478,98.795354
1494.828883,98.796075
1495.793289,98.812150
1496.757695,98.824636
1497.722101,98.829173
1498.686506,98.833830
1499.650912,98.829802
1500.615318,98.834410
1501.579723,98.847619
1502.544129,98.846642
1503.508535,98.835725
1504.472941,98.840177
1505.437346,98.864079
1506.401752,98.880166
1507.366158,98.875845
1508.330564,98.862757
1509.294969,98.849626
1510.259375,98.840191
1511.223781,98.845287
1512.188187,98.856487
1513.152592,98.847241
1514.116998,98.829689
1515.081404,98.821754
1516.045809,98.823714
1517.010215,98.829174
1517.974621,98.820258
1518.939027,98.806612
1519.903432,98.805275
1520.867838,98.809084
1521.832244,98.806794
1522.796650,98.796612
1523.761055,98.787076
1524.725461,98.786223
1525.689867,98.793271
1526.654272,98.801157
1527.618678,98.811196
1528.583084,98.820783
1529.547490,98.826646
1530.511895,98.837074
1531.476301,98.845484
1532.440707,98.854550
1533.405113,98.870800
1534.369518,98.874385
1535.333924,98.867160
1536.298330,98.861561
1537.262736,98.859014
1538.227141,98.878619
1539.191547,98.908563
1540.155953,98.907300
1541.120358,98.898580
1542.084764,98.898522
1543.049170,98.885751
1544.013576,98.880990
1544.977981,98.891273
1545.942387,98.892121
1546.906793,98.887132
1547.871199,98.885836
1548.835604,98.883700
1549.800010,98.880794
1550.764416,98.878482
1551.728822,98.871908
1552.693227,98.870728
1553.657633,98.885274
1554.622039,98.890014
1555.586444,98.873586
1556.550850,98.871277
1557.515256,98.891090
1558.479662,98.910152
1559.444067,98.921073
1560.408473,98.917163
1561.372879,98.907228
1562.337285,98.909334
1563.301690,98.914162
1564.266096,98.910292
1565.230502,98.899192
1566.194907,98.892749
1567.159313,98.894976
1568.123719,98.898584
1569.088125,98.905530
1570.052530,98.906787
1571.016936,98.894880
1571.981342,98.888780
1572.945748,98.885653
1573.910153,98.866980
1574.874559,98.861615
1575.838965,98.883050
1576.803371,98.885227
1577.767776,98.866066
1578.732182,98.852014
1579.696588,98.841330
1580.660993,98.836479
1581.625399,98.839066
1582.589805,98.835630
1583.554211,98.814599
1584.518616,98.793816
1585.483022,98.788499
1586.447428,98.782020
1587.411834,98.772253
1588.376239,98.766401
1589.340645,98.762359
1590.305051,98.764645
1591.269456,98.765259
1592.233862,98.755877
1593.198268,98.750523
1594.162674,98.756854
1595.127079,98.768293
1596.091485,98.775771
1597.055891,98.778856
1598.020297,98.782293
1598.984702,98.778827
1599.949108,98.773046
1600.913514,98.778567
1601.877920,98.786300
1602.842325,98.781678
1603.806731,98.771598
1604.771137,98.770604
1605.735542,98.768881
1606.699948,98.762686
1607.664354,98.764070
1608.628760,98.762202
1609.593165,98.756297
1610.557571,98.755512
1611.521977,98.748399
1612.486383,98.736719
1613.450788,98.727657
1614.415194,98.716359
1615.379600,98.716771
1616.344005,98.730855
1617.308411,98.727061
1618.272817,98.713121
1619.237223,98.709258
1620.201628,98.698409
1621.166034,98.685197
1622.130440,98.691295
1623.094846,98.709564
1624.059251,98.720892
1625.023657,98.716187
1625.988063,98.705545
1626.952469,98.703117
1627.916874,98.701458
1628.881280,98.694001
1629.845686,98.690523
1630.810091,98.693153
1631.774497,98.695221
1632.738903,98.688026
1633.703309,98.681934
1634.667714,98.695285
1635.632120,98.705439
1636.596526,98.692860
1637.560932,98.679458
1638.525337,98.674624
1639.489743,98.673242
1640.454149,98.672033
1641.418555,98.670438
1642.382960,98.668399
1643.347366,98.659763
1644.311772,98.654006
1645.276177,98.663677
1646.240583,98.665948
1647.204989,98.647585
1648.169395,98.636792
1649.133800,98.639455
1650.098206,98.628635
1651.062612,98.622907
1652.027018,98.661858
1652.991423,98.695230
1653.955829,98.674479
1654.920235,98.652042
1655.884640,98.637844
1656.849046,98.623880
1657.813452,98.632801
1658.777858,98.638754
1659.742263,98.616104
1660.706669,98.602743
1661.671075,98.614625
1662.635481,98.623917
1663.599886,98.619054
1664.564292,98.610351
1665.528698,98.608111
1666.493104,98.604119
1667.457509,98.594891
1668.421915,98.597855
1669.386321,98.602801
1670.350726,98.593849
1671.315132,98.584941
1672.279538,98.572409
1673.243944,98.554867
1674.208349,98.555720
1675.172755,98.564313
1676.137161,98.554392
1677.101567,98.541525
1678.065972,98.536753
1679.030378,98.528238
1679.994784,98.519516
1680.959189,98.515735
1681.923595,98.506508
1682.888001,98.506411
1683.852407,98.534036
1684.816812,98.551506
1685.781218,98.533483
1686.745624,98.514535
1687.710030,98.508010
1688.674435,98.506586
1689.638841,98.509026
1690.603247,98.510384
1691.567653,98.515683
1692.532058,98.526758
1693.496464,98.522110
1694.460870,98.515103
1695.425275,98.530962
1696.389681,98.536616
1697.354087,98.514034
1698.318493,98.494564
1699.282898,98.503052
1700.247304,98.517876
1701.211710,98.496000
1702.176116,98.472945
1703.140521,98.476129
1704.104927,98.476843
1705.069333,98.473166
1706.033738,98.463235
1706.998144,98.442793
1707.962550,98.435402
1708.926956,98.436874
1709.891361,98.426289
1710.855767,98.414464
1711.820173,98.414627
1712.784579,98.408409
1713.748984,98.395496
1714.713390,98.396315
1715.677796,98.399027
1716.642202,98.402920
1717.606607,98.405125
1718.571013,98.380260
1719.535419,98.354928
1720.499824,98.342460
1721.464230,98.319676
1722.428636,98.299571
1723.393042,98.287242
1724.357447,98.260968
1725.321853,98.227154
1726.286259,98.204182
1727.250665,98.187676
1728.215070,98.165668
1729.179476,98.135807
1730.143882,98.102405
1731.108288,98.067938
1732.072693,98.038783
1733.037099,98.034541
1734.001505,98.043286
1734.965910,98.025696
1735.930316,97.996426
1736.894722,97.980503
1737.859128,97.976347
1738.823533,97.985666
1739.787939,98.000409
1740.752345,98.015029
1741.716751,98.035626
1742.681156,98.059635
1743.645562,98.079185
1744.609968,98.094992
1745.574373,98.121604
1746.538779,98.152421
1747.503185,98.171596
1748.467591,98.181211
1749.431996,98.187965
1750.396402,98.217695
1751.360808,98.255576
1752.325214,98.263099
1753.289619,98.268819
1754.254025,98.281289
1755.218431,98.289665
1756.182837,98.301794
1757.147242,98.302375
1758.111648,98.298340
1759.076054,98.304858
1760.040459,98.319491
1761.004865,98.346745
1761.969271,98.366877
1762.933677,98.363540
1763.898082,98.358014
1764.862488,98.367255
1765.826894,98.386305
1766.791300,98.399082
1767.755705,98.403399
1768.720111,98.408826
1769.684517,98.416782
1770.648922,98.433972
1771.613328,98.464782
1772.577734,98.491129
1773.542140,98.499430
1774.506545,98.506399
1775.470951,98.523212
1776.435357,98.537172
1777.399763,98.549914
1778.364168,98.569749
1779.328574,98.582905
1780.292980,98.579347
1781.257386,98.574277
1782.221791,98.585409
1783.186197,98.601291
1784.150603,98.608357
1785.115008,98.612819
1786.079414,98.617942
1787.043820,98.625681
1788.008226,98.634691
1788.972631,98.640395
1789.937037,98.644614
1790.901443,98.652379
1791.865849,98.660841
1792.830254,98.656026
1793.794660,98.646263
1794.759066,98.646353
1795.723471,98.648695
1796.687877,98.650020
1797.652283,98.653600
1798.616689,98.662143
1799.581094,98.668779
1800.545500,98.669019
1801.509906,98.669288
1802.474312,98.659667
1803.438717,98.640861
1804.403123,98.630871
1805.367529,98.631088
1806.331935,98.631897
1807.296340,98.629669
1808.260746,98.624948
1809.225152,98.619097
1810.189557,98.625228
1811.153963,98.628688
1812.118369,98.614420
1813.082775,98.610921
1814.047180,98.609466
1815.011586,98.608035
1815.975992,98.619724
1816.940398,98.596273
1817.904803,98.540619
1818.869209,98.507316
1819.833615,98.492941
1820.798021,98.482852
1821.762426,98.486720
1822.726832,98.496019
1823.691238,98.488638
1824.655643,98.472740
1825.620049,98.456379
1826.584455,98.446435
1827.548861,98.457272
1828.513266,98.463485
1829.477672,98.453775
1830.442078,98.450753
1831.406484,98.454230
1832.370889,98.462076
1833.335295,98.476041
1834.299701,98.492304
1835.264106,98.512128
1836.228512,98.525037
1837.192918,98.525923
1838.157324,98.527622
1839.121729,98.528019
1840.086135,98.536037
1841.050541,98.555792
1842.014947,98.561384
1842.979352,98.565413
1843.943758,98.576399
1844.908164,98.569642
1845.872570,98.552557
1846.836975,98.551253
1847.801381,98.565999
1848.765787,98.554120
1849.730192,98.531988
1850.694598,98.550296
1851.659004,98.556847
1852.623410,98.523494
1853.587815,98.505506
1854.552221,98.516600
1855.516627,98.526542
1856.481033,98.529724
1857.445438,98.542761
1858.409844,98.550598
1859.374250,98.537124
1860.338655,98.520400
1861.303061,98.515997
1862.267467,98.515020
1863.231873,98.508918
1864.196278,98.519020
1865.160684,98.542989
1866.125090,98.558820
1867.089496,98.567541
1868.053901,98.557430
1869.018307,98.537151
1869.982713,98.530176
1870.947119,98.518332
1871.911524,98.496325
1872.875930,98.493328
1873.840336,98.512941
1874.804741,98.519153
1875.769147,98.506681
1876.733553,98.513826
1877.697959,98.535345
1878.662364,98.533087
1879.626770,98.521525
1880.591176,98.521314
1881.555582,98.498195
1882.519987,98.465340
1883.484393,98.471339
1884.448799,98.485861
1885.413204,98.490071
1886.377610,98.498908
1887.342016,98.492877
1888.306422,98.472519
1889.270827,98.457058
1890.235233,98.448305
1891.199639,98.446667
1892.164045,98.460714
1893.128450,98.472301
1894.092856,98.458585
1895.057262,98.445244
1896.021668,98.437176
1896.986073,98.423985
1897.950479,98.409004
1898.914885,98.387490
1899.879290,98.388036
1900.843696,98.413171
1901.808102,98.423754
1902.772508,98.415571
1903.736913,98.404834
1904.701319,98.396819
1905.665725,98.392012
1906.630131,98.411831
1907.594536,98.431356
1908.558942,98.408250
1909.523348,98.399167
1910.487754,98.409440
1911.452159,98.381117
1912.416565,98.359975
1913.380971,98.373433
1914.345376,98.378675
1915.309782,98.369268
1916.274188,98.353561
1917.238594,98.345903
1918.202999,98.347808
1919.167405,98.341012
1920.131811,98.343367
1921.096217,98.368642
1922.060622,98.394939
1923.025028,98.389262
1923.989434,98.365722
1924.953839,98.375130
1925.918245,98.380263
1926.882651,98.339405
1927.847057,98.293794
1928.811462,98.263652
1929.775868,98.257794
1930.740274,98.257936
1931.704680,98.221057
1932.669085,98.204683
1933.633491,98.235375
1934.597897,98.206919
1935.562303,98.154811
1936.526708,98.187826
1937.491114,98.200723
1938.455520,98.134096
1939.419925,98.093875
1940.384331,98.097565
1941.348737,98.087693
1942.313143,98.027771
1943.277548,97.949879
1944.241954,97.880547
1945.206360,97.796562
1946.170766,97.752410
1947.135171,97.751536
1948.099577,97.731130
1949.063983,97.696396
1950.028388,97.663485
1950.992794,97.667793
1951.957200,97.681987
1952.921606,97.681880
1953.886011,97.717330
1954.850417,97.749981
1955.814823,97.775365
1956.779229,97.800065
1957.743634,97.768580
1958.708040,97.731307
1959.672446,97.753347
1960.636852,97.801248
1961.601257,97.793623
1962.565663,97.756769
1963.530069,97.768210
1964.494474,97.776995
1965.458880,97.757868
1966.423286,97.708350
1967.387692,97.673827
1968.352097,97.738199
1969.316503,97.766112
1970.280909,97.721446
1971.245315,97.740639
1972.209720,97.732960
1973.174126,97.675605
1974.138532,97.693436
1975.102938,97.687690
1976.067343,97.611894
1977.031749,97.559203
1977.996155,97.468295
1978.960560,97.348392
1979.924966,97.298271
1980.889372,97.349111
1981.853778,97.483102
1982.818183,97.560772
1983.782589,97.559051
1984.746995,97.587690
1985.711401,97.634276
1986.675806,97.670344
1987.640212,97.716275
1988.604618,97.755691
1989.569023,97.745433
1990.533429,97.730357
1991.497835,97.718166
1992.462241,97.687092
1993.426646,97.749003
1994.391052,97.819841
1995.355458,97.786047
1996.319864,97.760601
1997.284269,97.760020
1998.248675,97.789260
1999.213081,97.857319
2000.177487,97.889553
2001.141892,97.891574
2002.106298,97.927402
2003.070704,97.972661
2004.035109,97.946009
2004.999515,97.885760
2005.963921,97.813247
2006.928327,97.711107
2007.892732,97.645503
2008.857138,97.624238
2009.821544,97.633478
2010.785950,97.651351
2011.750355,97.625944
2012.714761,97.582515
2013.679167,97.600904
2014.643572,97.651890
2015.607978,97.658992
2016.572384,97.639628
2017.536790,97.574644
2018.501195,97.505665
2019.465601,97.508964
2020.430007,97.548734
2021.394413,97.566323
2022.358818,97.504576
2023.323224,97.470163
2024.287630,97.505921
2025.252036,97.470335
2026.216441,97.417698
2027.180847,97.410961
2028.145253,97.406486
2029.109658,97.413816
2030.074064,97.386977
2031.038470,97.334610
2032.002876,97.366752
2032.967281,97.419654
2033.931687,97.385297
2034.896093,97.289003
2035.860499,97.192509
2036.824904,97.213324
2037.789310,97.301413
2038.753716,97.314899
2039.718121,97.303753
2040.682527,97.325881
2041.646933,97.370981
2042.611339,97.370888
2043.575744,97.343815
2044.540150,97.353170
2045.504556,97.313938
2046.468962,97.268601
2047.433367,97.310656
2048.397773,97.346175
2049.362179,97.259823
2050.326585,97.124701
2051.290990,97.208202
2052.255396,97.515272
2053.219802,97.690050
2054.184207,97.607615
2055.148613,97.523126
2056.113019,97.569333
2057.077425,97.631594
2058.041830,97.621070
2059.006236,97.572838
2059.970642,97.571502
2060.935048,97.635509
2061.899453,97.671936
2062.863859,97.646368
2063.828265,97.651901
2064.792671,97.688962
2065.757076,97.692794
2066.721482,97.678484
2067.685888,97.639220
2068.650293,97.587607
2069.614699,97.579263
2070.579105,97.609760
2071.543511,97.640157
2072.507916,97.642093
2073.472322,97.631416
2074.436728,97.633050
2075.401134,97.655617
2076.365539,97.681018
2077.329945,97.669668
2078.294351,97.645370
2079.258756,97.626161
2080.223162,97.611445
2081.187568,97.623797
2082.151974,97.632999
2083.116379,97.638023
2084.080785,97.655064
2085.045191,97.659262
2086.009597,97.663812
2086.974002,97.658186
2087.938408,97.646062
2088.902814,97.661045
2089.867220,97.669026
2090.831625,97.680863
2091.796031,97.725403
2092.760437,97.761183
2093.724842,97.764421
2094.689248,97.743415
2095.653654,97.706750
2096.618060,97.657644
2097.582465,97.644254
2098.546871,97.681294
2099.511277,97.676741
2100.475683,97.631392
2101.440088,97.623118
2102.404494,97.624215
2103.368900,97.613133
2104.333305,97.639397
2105.297711,97.657721
2106.262117,97.614871
2107.226523,97.582215
2108.190928,97.566935
2109.155334,97.549519
2110.119740,97.570069
2111.084146,97.593811
2112.048551,97.585590
2113.012957,97.568863
2113.977363,97.577978
2114.941769,97.623108
2115.906174,97.663691
2116.870580,97.684354
2117.834986,97.696143
2118.799391,97.704980
2119.763797,97.708774
2120.728203,97.711927
2121.692609,97.739271
2122.657014,97.756535
2123.621420,97.742815
2124.585826,97.757836
2125.550232,97.812570
2126.514637,97.849881
2127.479043,97.830789
2128.443449,97.821438
2129.407854,97.883927
2130.372260,97.927583
2131.336666,97.919791
2132.301072,97.931742
2133.265477,97.920727
2134.229883,97.845011
2135.194289,97.746500
2136.158695,97.645529
2137.123100,97.597142
2138.087506,97.595887
2139.051912,97.537005
2140.016318,97.489407
2140.980723,97.539307
2141.945129,97.567063
2142.909535,97.541164
2143.873940,97.514515
2144.838346,97.463098
2145.802752,97.431248
2146.767158,97.461198
2147.731563,97.486204
2148.695969,97.470816
2149.660375,97.475211
2150.624781,97.537757
2151.589186,97.575714
2152.553592,97.564021
2153.517998,97.589648
2154.482404,97.624343
2155.446809,97.629337
2156.411215,97.677318
2157.375621,97.687814
2158.340026,97.440536
2159.304432,97.027521
2160.268838,96.803062
2161.233244,96.800072
2162.197649,96.826582
2163.162055,96.877695
2164.126461,96.992645
2165.090867,97.073173
2166.055272,97.068582
2167.019678,97.073328
2167.984084,97.124323
2168.948489,97.180458
2169.912895,97.262002
2170.877301,97.350662
2171.841707,97.389904
2172.806112,97.396997
2173.770518,97.399095
2174.734924,97.382709
2175.699330,97.338758
2176.663735,97.324407
2177.628141,97.387611
2178.592547,97.449877
2179.556953,97.430288
2180.521358,97.393120
2181.485764,97.366654
2182.450170,97.279387
2183.414575,97.228000
2184.378981,97.291026
2185.343387,97.339031
2186.307793,97.332574
2187.272198,97.315607
2188.236604,97.292184
2189.201010,97.278471
2190.165416,97.305953
2191.129821,97.352431
2192.094227,97.355190
2193.058633,97.371784
2194.023038,97.426647
2194.987444,97.433913
2195.951850,97.416418
2196.916256,97.413209
2197.880661,97.405372
2198.845067,97.394086
2199.809473,97.401718
2200.773879,97.429444
2201.738284,97.431240
2202.702690,97.412148
2203.667096,97.415989
2204.631502,97.442672
2205.595907,97.469632
2206.560313,97.466850
2207.524719,97.443016
2208.489124,97.446471
2209.453530,97.458556
2210.417936,97.447804
2211.382342,97.456193
2212.346747,97.456813
2213.311153,97.432212
2214.275559,97.458048
2215.239965,97.497519
2216.204370,97.496390
2217.168776,97.480195
2218.133182,97.467239
2219.097587,97.474747
2220.061993,97.476705
2221.026399,97.464106
2221.990805,97.476473
2222.955210,97.507097
2223.919616,97.512914
2224.884022,97.493867
2225.848428,97.502256
2226.812833,97.531713
2227.777239,97.530208
2228.741645,97.501048
2229.706051,97.481854
2230.670456,97.493469
2231.634862,97.506183
2232.599268,97.492397
2233.563673,97.486784
2234.528079,97.496988
2235.492485,97.494002
2236.456891,97.511211
2237.421296,97.538684
2238.385702,97.532997
2239.350108,97.548937
2240.314514,97.556708
2241.278919,97.523079
2242.243325,97.548471
2243.207731,97.591020
2244.172137,97.577400
2245.136542,97.570131
2246.100948,97.590110
2247.065354,97.634207
2248.029759,97.676328
2248.994165,97.666576
2249.958571,97.639818
2250.922977,97.629725
2251.887382,97.619869
2252.851788,97.615777
2253.816194,97.614603
2254.780600,97.600860
2255.745005,97.589101
2256.709411,97.593212
2257.673817,97.604963
2258.638222,97.607883
2259.602628,97.612224
2260.567034,97.639603
2261.531440,97.647394
2262.495845,97.623929
2263.460251,97.617253
2264.424657,97.610877
2265.389063,97.601346
2266.353468,97.596257
2267.317874,97.566593
2268.282280,97.545421
2269.246686,97.548993
2270.211091,97.543048
2271.175497,97.525204
2272.139903,97.505496
2273.104308,97.496689
2274.068714,97.491912
2275.033120,97.483673
2275.997526,97.484141
2276.961931,97.478989
2277.926337,97.464722
2278.890743,97.458192
2279.855149,97.455032
2280.819554,97.454697
2281.783960,97.459102
2282.748366,97.448522
2283.712771,97.419313
2284.677177,97.396857
2285.641583,97.388044
2286.605989,97.388329
2287.570394,97.391650
2288.534800,97.396957
2289.499206,97.424394
2290.463612,97.452652
2291.428017,97.454749
2292.392423,97.456634
2293.356829,97.460361
2294.321235,97.458712
2295.285640,97.466748
2296.250046,97.478533
2297.214452,97.479381
2298.178857,97.479160
2299.143263,97.491189
2300.107669,97.500394
2301.072075,97.503490
2302.036480,97.510652
2303.000886,97.518528
2303.965292,97.534896
2304.929698,97.550643
2305.894103,97.543256
2306.858509,97.537227
2307.822915,97.555999
2308.787320,97.573615
2309.751726,97.584864
2310.716132,97.598387
2311.680538,97.603153
2312.644943,97.614633
2313.609349,97.632812
2314.573755,97.632732
2315.538161,97.613814
2316.502566,97.597957
2317.466972,97.607194
2318.431378,97.618718
2319.395784,97.610698
2320.360189,97.594335
2321.324595,97.569568
2322.289001,97.532228
2323.253406,97.487976
2324.217812,97.489897
2325.182218,97.592878
2326.146624,97.745937
2327.111029,97.850111
2328.075435,97.883128
2329.039841,97.895179
2330.004247,97.911125
2330.968652,97.916627
2331.933058,97.925580
2332.897464,97.949510
2333.861870,97.959908
2334.826275,97.960734
2335.790681,97.963737
2336.755087,97.950849
2337.719492,97.937745
2338.683898,97.941671
2339.648304,97.945471
2340.612710,97.928261
2341.577115,97.906020
2342.541521,97.907480
2343.505927,97.906422
2344.470333,97.888713
2345.434738,97.873668
2346.399144,97.868216
2347.363550,97.864455
2348.327955,97.845851
2349.292361,97.834264
2350.256767,97.840323
2351.221173,97.847192
2352.185578,97.869181
2353.149984,97.905289
2354.114390,97.930604
2355.078796,97.934076
2356.043201,97.927631
2357.007607,97.923314
2357.972013,97.918958
2358.936419,97.925035
2359.900824,97.942588
2360.865230,97.948398
2361.829636,97.940917
2362.794041,97.943171
2363.758447,97.948263
2364.722853,97.949182
2365.687259,97.959097
2366.651664,97.951645
2367.616070,97.924240
2368.580476,97.912988
2369.544882,97.907842
2370.509287,97.895538
2371.473693,97.884813
2372.438099,97.878765
2373.402504,97.885250
2374.366910,97.898202
2375.331316,97.896975
2376.295722,97.876165
2377.260127,97.846323
2378.224533,97.834468
2379.188939,97.842751
2380.153345,97.841705
2381.117750,97.842746
2382.082156,97.850320
2383.046562,97.845940
2384.010968,97.848046
2384.975373,97.855902
2385.939779,97.857435
2386.904185,97.851601
2387.868590,97.832671
2388.832996,97.828797
2389.797402,97.844997
2390.761808,97.844415
2391.726213,97.832526
2392.690619,97.834943
2393.655025,97.839597
2394.619431,97.833435
2395.583836,97.825385
2396.548242,97.810336
2397.512648,97.799401
2398.477053,97.811999
2399.441459,97.818815
2400.405865,97.805117
2401.370271,97.792729
2402.334676,97.795030
2403.299082,97.815712
2404.263488,97.832987
2405.227894,97.824006
2406.192299,97.797498
2407.156705,97.766881
2408.121111,97.746797
2409.085517,97.748355
2410.049922,97.755383
2411.014328,97.746284
2411.978734,97.727875
2412.943139,97.727945
2413.907545,97.748118
2414.871951,97.760259
2415.836357,97.751644
2416.800762,97.726663
2417.765168,97.705528
2418.729574,97.706527
2419.693980,97.723577
2420.658385,97.742753
2421.622791,97.738610
2422.587197,97.714132
2423.551603,97.705611
2424.516008,97.705739
2425.480414,97.689511
2426.444820,97.679655
2427.409225,97.689598
2428.373631,97.674677
2429.338037,97.633880
2430.302443,97.622715
2431.266848,97.645082
2432.231254,97.657944
2433.195660,97.643489
2434.160066,97.648154
2435.124471,97.682275
2436.088877,97.687516
2437.053283,97.668559
2438.017688,97.656323
2438.982094,97.650737
2439.946500,97.656993
2440.910906,97.670484
2441.875311,97.669167
2442.839717,97.650622
2443.804123,97.659541
2444.768529,97.695514
2445.732934,97.703920
2446.697340,97.688355
2447.661746,97.669090
2448.626152,97.652059
2449.590557,97.651158
2450.554963,97.656998
2451.519369,97.661362
2452.483774,97.673546
2453.448180,97.688766
2454.412586,97.688461
2455.376992,97.677721
2456.341397,97.676176
2457.305803,97.677892
2458.270209,97.683660
2459.234615,97.702963
2460.199020,97.724740
2461.163426,97.735030
2462.127832,97.732945
2463.092237,97.732229
2464.056643,97.727936
2465.021049,97.718363
2465.985455,97.716717
2466.949860,97.710432
2467.914266,97.703127
2468.878672,97.702826
2469.843078,97.711624
2470.807483,97.736171
2471.771889,97.750761
2472.736295,97.740911
2473.700701,97.728158
2474.665106,97.735782
2475.629512,97.733015
2476.593918,97.712110
2477.558323,97.730630
2478.522729,97.747815
2479.487135,97.726899
2480.451541,97.708151
2481.415946,97.692145
2482.380352,97.693830
2483.344758,97.717403
2484.309164,97.736980
2485.273569,97.738637
2486.237975,97.721955
2487.202381,97.707081
2488.166786,97.695799
2489.131192,97.688822
2490.095598,97.693763
2491.060004,97.707782
2492.024409,97.706686
2492.988815,97.686389
2493.953221,97.706692
2494.917627,97.741140
2495.882032,97.716612
2496.846438,97.681221
2497.810844,97.677524
2498.775250,97.686137
2499.739655,97.695980
2500.704061,97.697355
2501.668467,97.699720
2502.632872,97.698655
2503.597278,97.682778
2504.561684,97.684914
2505.526090,97.689150
2506.490495,97.666576
2507.454901,97.663639
2508.419307,97.689228
2509.383713,97.700384
2510.348118,97.681905
2511.312524,97.662389
2512.276930,97.670352
2513.241336,97.680105
2514.205741,97.682139
2515.170147,97.701392
2516.134553,97.714810
2517.098958,97.700156
2518.063364,97.694734
2519.027770,97.700032
2519.992176,97.684629
2520.956581,97.681389
2521.920987,97.694949
2522.885393,97.688727
2523.849799,97.683653
2524.814204,97.692340
2525.778610,97.697210
2526.743016,97.683331
2527.707421,97.668227
2528.671827,97.684254
2529.636233,97.692520
2530.600639,97.685324
2531.565044,97.699306
2532.529450,97.710688
2533.493856,97.705098
2534.458262,97.686214
2535.422667,97.662404
2536.387073,97.638636
2537.351479,97.622940
2538.315885,97.637257
2539.280290,97.645415
2540.244696,97.641674
2541.209102,97.643626
2542.173507,97.633246
2543.137913,97.622043
2544.102319,97.597772
2545.066725,97.582656
2546.031130,97.595339
2546.995536,97.604847
2547.959942,97.636668
2548.924348,97.647401
2549.888753,97.607061
2550.853159,97.596216
2551.817565,97.615805
2552.781970,97.621470
2553.746376,97.602176
2554.710782,97.582997
2555.675188,97.588756
2556.639593,97.582911
2557.603999,97.562824
2558.568405,97.561367
2559.532811,97.570140
2560.497216,97.582055
2561.461622,97.591946
2562.426028,97.591510
2563.390434,97.593159
2564.354839,97.585216
2565.319245,97.559701
2566.283651,97.558995
2567.248056,97.576810
2568.212462,97.574450
2569.176868,97.568960
2570.141274,97.560493
2571.105679,97.540954
2572.070085,97.533224
2573.034491,97.535353
2573.998897,97.540471
2574.963302,97.554660
2575.927708,97.568815
2576.892114,97.558822
2577.856520,97.534625
2578.820925,97.532790
2579.785331,97.537175
2580.749737,97.533590
2581.714142,97.545607
2582.678548,97.558897
2583.642954,97.546887
2584.607360,97.535311
2585.571765,97.537673
2586.536171,97.519446
2587.500577,97.504764
2588.464983,97.508672
2589.429388,97.489296
2590.393794,97.471383
2591.358200,97.472683
2592.322605,97.475871
2593.287011,97.477784
2594.251417,97.472027
2595.215823,97.470429
2596.180228,97.474272
2597.144634,97.479267
2598.109040,97.481266
2599.073446,97.487705
2600.037851,97.496811
2601.002257,97.475354
2601.966663,97.462047
2602.931069,97.471055
2603.895474,97.464793
2604.859880,97.462055
2605.824286,97.446610
2606.788691,97.426714
2607.753097,97.444767
2608.717503,97.462109
2609.681909,97.453291
2610.646314,97.442221
2611.610720,97.437441
2612.575126,97.430509
2613.539532,97.423660
2614.503937,97.422240
2615.468343,97.421425
2616.432749,97.414278
2617.397154,97.396374
2618.361560,97.392577
2619.325966,97.402158
2620.290372,97.394574
2621.254777,97.391356
2622.219183,97.393357
2623.183589,97.382507
2624.147995,97.385710
2625.112400,97.391559
2626.076806,97.381895
2627.041212,97.385342
2628.005618,97.392526
2628.970023,97.384200
2629.934429,97.378338
2630.898835,97.378281
2631.863240,97.375809
2632.827646,97.371719
2633.792052,97.369181
2634.756458,97.358236
2635.720863,97.338564
2636.685269,97.336783
2637.649675,97.343397
2638.614081,97.338161
2639.578486,97.341376
2640.542892,97.355048
2641.507298,97.351235
2642.471703,97.339653
2643.436109,97.345031
2644.400515,97.338555
2645.364921,97.321878
2646.329326,97.329667
2647.293732,97.342010
2648.258138,97.349779
2649.222544,97.350377
2650.186949,97.341319
2651.151355,97.343243
2652.115761,97.340910
2653.080167,97.332455
2654.044572,97.333118
2655.008978,97.337174
2655.973384,97.350638
2656.937789,97.359592
2657.902195,97.363342
2658.866601,97.380581
2659.831007,97.384293
2660.795412,97.376397
2661.759818,97.384967
2662.724224,97.391714
2663.688630,97.393836
2664.653035,97.402961
2665.617441,97.406928
2666.581847,97.408668
2667.546253,97.416862
2668.510658,97.420138
2669.475064,97.415668
2670.439470,97.418265
2671.403875,97.421145
2672.368281,97.408718
2673.332687,97.394939
2674.297093,97.394938
2675.261498,97.400818
2676.225904,97.393326
2677.190310,97.381543
2678.154716,97.388530
2679.119121,97.391429
2680.083527,97.379434
2681.047933,97.382529
2682.012338,97.397860
2682.976744,97.394798
2683.941150,97.379755
2684.905556,97.383198
2685.869961,97.386242
2686.834367,97.373697
2687.798773,97.374067
2688.763179,97.374697
2689.727584,97.367619
2690.691990,97.369203
2691.656396,97.359162
2692.620802,97.341890
2693.585207,97.333217
2694.549613,97.328406
2695.514019,97.338695
2696.478424,97.349345
2697.442830,97.348559
2698.407236,97.349264
2699.371642,97.337579
2700.336047,97.324536
2701.300453,97.327023
2702.264859,97.327764
2703.229265,97.327052
2704.193670,97.323161
2705.158076,97.320674
2706.122482,97.324589
2707.086887,97.314865
2708.051293,97.306381
2709.015699,97.307430
2709.980105,97.298269
2710.944510,97.292826
2711.908916,97.297912
2712.873322,97.300394
2713.837728,97.300642
2714.802133,97.303389
2715.766539,97.307605
2716.730945,97.302496
2717.695351,97.289660
2718.659756,97.284485
2719.624162,97.280484
2720.588568,97.270177
2721.552973,97.264596
2722.517379,97.263105
2723.481785,97.261657
2724.446191,97.264276
2725.410596,97.265772
2726.375002,97.260157
2727.339408,97.256334
2728.303814,97.260708
2729.268219,97.264262
2730.232625,97.264419
2731.197031,97.263108
2732.161436,97.260704
2733.125842,97.259645
2734.090248,97.256196
2735.054654,97.254208
2736.019059,97.256496
2736.983465,97.253179
2737.947871,97.240258
2738.912277,97.229967
2739.876682,97.230091
2740.841088,97.223295
2741.805494,97.209933
2742.769900,97.209215
2743.734305,97.211509
2744.698711,97.203174
2745.663117,97.197959
2746.627522,97.197576
2747.591928,97.182228
2748.556334,97.174417
2749.520740,97.190502
2750.485145,97.196707
2751.449551,97.187596
2752.413957,97.176042
2753.378363,97.173487
2754.342768,97.182507
2755.307174,97.177838
2756.271580,97.160623
2757.235986,97.148131
2758.200391,97.138700
2759.164797,97.132485
2760.129203,97.127610
2761.093608,97.113292
2762.058014,97.099678
2763.022420,97.105694
2763.986826,97.107876
2764.951231,97.091660
2765.915637,97.075358
2766.880043,97.060450
2767.844449,97.053724
2768.808854,97.051391
2769.773260,97.038559
2770.737666,97.037946
2771.702071,97.054826
2772.666477,97.056867
2773.630883,97.043793
2774.595289,97.036484
2775.559694,97.036711
2776.524100,97.049283
2777.488506,97.068131
2778.452912,97.069055
2779.417317,97.064515
2780.381723,97.070831
2781.346129,97.066572
2782.310535,97.050462
2783.274940,97.045159
2784.239346,97.043883
2785.203752,97.032300
2786.168157,97.032696
2787.132563,97.054385
2788.096969,97.068474
2789.061375,97.071681
2790.025780,97.070649
2790.990186,97.053342
2791.954592,97.033720
2792.918998,97.033597
2793.883403,97.045039
2794.847809,97.050906
2795.812215,97.041538
2796.776620,97.026984
2797.741026,97.029838
2798.705432,97.040812
2799.669838,97.037314
2800.634243,97.024152
2801.598649,97.004261
2802.563055,96.986853
2803.527461,96.985454
2804.491866,96.982727
2805.456272,96.975463
2806.420678,96.973404
2807.385084,96.961511
2808.349489,96.945166
2809.313895,96.952389
2810.278301,96.968431
2811.242706,96.963932
2812.207112,96.953817
2813.171518,96.946691
2814.135924,96.934015
2815.100329,96.923685
2816.064735,96.920773
2817.029141,96.922701
2817.993547,96.928073
2818.957952,96.948100
2819.922358,96.960054
2820.886764,96.930458
2821.851169,96.902576
2822.815575,96.895531
2823.779981,96.889318
2824.744387,96.903949
2825.708792,96.922427
2826.673198,96.913279
2827.637604,96.901650
2828.602010,96.908899
2829.566415,96.918873
2830.530821,96.915354
2831.495227,96.912545
2832.459633,96.918326
2833.424038,96.915715
2834.388444,96.924724
2835.352850,96.950050
2836.317255,96.946716
2837.281661,96.940762
2838.246067,96.955058
2839.210473,96.943246
2840.174878,96.921025
2841.139284,96.910338
2842.103690,96.896494
2843.068096,96.896729
2844.032501,96.901898
2844.996907,96.888960
2845.961313,96.866172
2846.925719,96.833155
2847.890124,96.794382
2848.854530,96.759500
2849.818936,96.732096
2850.783341,96.727259
2851.747747,96.739849
2852.712153,96.748454
2853.676559,96.751327
2854.640964,96.755399
2855.605370,96.762168
2856.569776,96.760605
2857.534182,96.756362
2858.498587,96.775298
2859.462993,96.798024
2860.427399,96.790294
2861.391804,96.771047
2862.356210,96.764684
2863.320616,96.769147
2864.285022,96.776562
2865.249427,96.781897
2866.213833,96.789853
2867.178239,96.795414
2868.142645,96.794013
2869.107050,96.788521
2870.071456,96.772191
2871.035862,96.758100
2872.000268,96.762216
2872.964673,96.773348
2873.929079,96.774255
2874.893485,96.765700
2875.857890,96.758790
2876.822296,96.751847
2877.786702,96.740566
2878.751108,96.720084
2879.715513,96.716144
2880.679919,96.742756
2881.644325,96.751268
2882.608731,96.745257
2883.573136,96.747911
2884.537542,96.745823
2885.501948,96.753058
2886.466353,96.764489
2887.430759,96.765416
2888.395165,96.757641
2889.359571,96.748768
2890.323976,96.760225
2891.288382,96.771950
2892.252788,96.767856
2893.217194,96.767721
2894.181599,96.755228
2895.146005,96.725782
2896.110411,96.706657
2897.074817,96.704741
2898.039222,96.715796
2899.003628,96.720825
2899.968034,96.707502
2900.932439,96.689809
2901.896845,96.680554
2902.861251,96.687358
2903.825657,96.690528
2904.790062,96.665162
2905.754468,96.643522
2906.718874,96.658239
2907.683280,96.669250
2908.647685,96.647465
2909.612091,96.625621
2910.576497,96.605158
2911.540902,96.579843
2912.505308,96.577315
2913.469714,96.582445
2914.434120,96.569709
2915.398525,96.551745
2916.362931,96.531768
2917.327337,96.497403
2918.291743,96.455978
2919.256148,96.432929
2920.220554,96.431209
2921.184960,96.429487
2922.149366,96.429516
2923.113771,96.436802
2924.078177,96.430659
2925.042583,96.420477
2926.006988,96.430383
2926.971394,96.452855
2927.935800,96.466455
2928.900206,96.455519
2929.864611,96.433999
2930.829017,96.412137
2931.793423,96.405715
2932.757829,96.422966
2933.722234,96.426116
2934.686640,96.429186
2935.651046,96.442059
2936.615452,96.435935
2937.579857,96.439462
2938.544263,96.461025
2939.508669,96.471933
2940.473074,96.467185
2941.437480,96.465839
2942.401886,96.466073
2943.366292,96.447650
2944.330697,96.445630
2945.295103,96.462392
2946.259509,96.463162
2947.223915,96.459890
2948.188320,96.446937
2949.152726,96.430245
2950.117132,96.420191
2951.081537,96.398083
2952.045943,96.378344
2953.010349,96.358084
2953.974755,96.322624
2954.939160,96.291857
2955.903566,96.271262
2956.867972,96.251655
2957.832378,96.227194
2958.796783,96.206121
2959.761189,96.181344
2960.725595,96.138705
2961.690001,96.114097
2962.654406,96.107112
2963.618812,96.079029
2964.583218,96.048565
2965.547623,96.035591
2966.512029,96.030424
2967.476435,96.020841
2968.440841,95.991428
2969.405246,95.953758
2970.369652,95.936580
2971.334058,95.925338
2972.298464,95.889924
2973.262869,95.837293
2974.227275,95.787996
2975.191681,95.757004
2976.156086,95.732777
2977.120492,95.690825
2978.084898,95.631770
2979.049304,95.568733
2980.013709,95.512882
2980.978115,95.451620
2981.942521,95.391661
2982.906927,95.358883
2983.871332,95.319277
2984.835738,95.267455
2985.800144,95.251548
2986.764550,95.263970
2987.728955,95.280790
2988.693361,95.308290
2989.657767,95.353612
2990.622172,95.429039
2991.586578,95.529815
2992.550984,95.625694
2993.515390,95.716081
2994.479795,95.794190
2995.444201,95.844832
2996.408607,95.908930
2997.373013,95.980233
2998.337418,96.021553
2999.301824,96.052993
3000.266230,96.062384
3001.230635,96.057827
3002.195041,96.067441
3003.159447,96.066839
3004.123853,96.074166
3005.088258,96.078229
3006.052664,96.033369
3007.017070,95.992980
3007.981476,95.984899
3008.945881,95.960776
3009.910287,95.914170
3010.874693,95.867601
3011.839099,95.823128
3012.803504,95.776178
3013.767910,95.724437
3014.732316,95.665734
3015.696721,95.606845
3016.661127,95.543897
3017.625533,95.459028
3018.589939,95.349739
3019.554344,95.232146
3020.518750,95.131169
3021.483156,95.041868
3022.447562,94.934961
3023.411967,94.828166
3024.376373,94.756584
3025.340779,94.701641
3026.305185,94.650141
3027.269590,94.646880
3028.233996,94.706381
3029.198402,94.790794
3030.162807,94.888697
3031.127213,94.995688
3032.091619,95.100368
3033.056025,95.202200
3034.020430,95.281507
3034.984836,95.344129
3035.949242,95.422228
3036.913648,95.505377
3037.878053,95.575943
3038.842459,95.625681
3039.806865,95.659994
3040.771270,95.709328
3041.735676,95.754735
3042.700082,95.765843
3043.664488,95.784024
3044.628893,95.831475
3045.593299,95.876406
3046.557705,95.910876
3047.522111,95.942015
3048.486516,95.966381
3049.450922,95.987100
3050.415328,96.011781
3051.379734,96.033781
3052.344139,96.037147
3053.308545,96.026325
3054.272951,96.017433
3055.237356,96.030223
3056.201762,96.067299
3057.166168,96.085390
3058.130574,96.078548
3059.094979,96.083500
3060.059385,96.095296
3061.023791,96.108147
3061.988197,96.128398
3062.952602,96.142620
3063.917008,96.144119
3064.881414,96.137026
3065.845819,96.134347
3066.810225,96.148206
3067.774631,96.155534
3068.739037,96.138248
3069.703442,96.133730
3070.667848,96.148912
3071.632254,96.142401
3072.596660,96.136275
3073.561065,96.159153
3074.525471,96.177134
3075.489877,96.173368
3076.454283,96.162818
3077.418688,96.164985
3078.383094,96.177862
3079.347500,96.180779
3080.311905,96.171041
3081.276311,96.160918
3082.240717,96.174766
3083.205123,96.204890
3084.169528,96.218248
3085.133934,96.219164
3086.098340,96.212743
3087.062746,96.200747
3088.027151,96.194267
3088.991557,96.188056
3089.955963,96.184411
3090.920368,96.179581
3091.884774,96.163882
3092.849180,96.167239
3093.813586,96.189890
3094.777991,96.192960
3095.742397,96.187254
3096.706803,96.183161
3097.671209,96.184221
3098.635614,96.203079
3099.600020,96.213997
3100.564426,96.213041
3101.528832,96.212039
3102.493237,96.206845
3103.457643,96.201130
3104.422049,96.192757
3105.386454,96.194098
3106.350860,96.209462
3107.315266,96.222298
3108.279672,96.227447
3109.244077,96.219739
3110.208483,96.203481
3111.172889,96.200105
3112.137295,96.213208
3113.101700,96.225407
3114.066106,96.229388
3115.030512,96.212387
3115.994918,96.174654
3116.959323,96.150937
3117.923729,96.155847
3118.888135,96.172555
3119.852540,96.175097
3120.816946,96.172136
3121.781352,96.186127
3122.745758,96.198560
3123.710163,96.199632
3124.674569,96.190409
3125.638975,96.178009
3126.603381,96.180218
3127.567786,96.184525
3128.532192,96.176445
3129.496598,96.172249
3130.461003,96.193324
3131.425409,96.205067
3132.389815,96.181774
3133.354221,96.179201
3134.318626,96.184061
3135.283032,96.165737
3136.247438,96.166479
3137.211844,96.147151
3138.176249,96.109983
3139.140655,96.123958
3140.105061,96.130601
3141.069467,96.115793
3142.033872,96.135647
3142.998278,96.150636
3143.962684,96.139766
3144.927089,96.132393
3145.891495,96.123946
3146.855901,96.114799
3147.820307,96.117514
3148.784712,96.115946
3149.749118,96.107916
3150.713524,96.104536
3151.677930,96.101722
3152.642335,96.115652
3153.606741,96.122352
3154.571147,96.101581
3155.535552,96.110371
3156.499958,96.136955
3157.464364,96.141668
3158.428770,96.138513
3159.393175,96.116643
3160.357581,96.096853
3161.321987,96.096118
3162.286393,96.081605
3163.250798,96.079800
3164.215204,96.105781
3165.179610,96.117465
3166.144016,96.104193
3167.108421,96.084423
3168.072827,96.095764
3169.037233,96.125343
3170.001638,96.124971
3170.966044,96.121746
3171.930450,96.114826
3172.894856,96.085926
3173.859261,96.083220
3174.823667,96.093316
3175.788073,96.083723
3176.752479,96.074038
3177.716884,96.062497
3178.681290,96.054538
3179.645696,96.058734
3180.610102,96.068687
3181.574507,96.086296
3182.538913,96.090955
3183.503319,96.069369
3184.467724,96.055927
3185.432130,96.056078
3186.396536,96.037345
3187.360942,96.015771
3188.325347,96.002047
3189.289753,95.997754
3190.254159,96.030048
3191.218565,96.054902
3192.182970,96.047002
3193.147376,96.044440
3194.111782,96.039634
3195.076187,96.034589
3196.040593,96.042814
3197.004999,96.049364
3197.969405,96.043914
3198.933810,96.027952
3199.898216,96.010050
3200.862622,95.995335
3201.827028,95.989826
3202.791433,96.001962
3203.755839,96.015685
3204.720245,95.998435
3205.684651,95.973670
3206.649056,95.972547
3207.613462,95.969602
3208.577868,95.959570
3209.542273,95.948554
3210.506679,95.948654
3211.471085,95.967813
3212.435491,95.976285
3213.399896,95.976072
3214.364302,95.974828
3215.328708,95.974392
3216.293114,95.991463
3217.257519,95.993740
3218.221925,95.959845
3219.186331,95.941136
3220.150736,95.965673
3221.115142,95.988652
3222.079548,95.969302
3223.043954,95.938211
3224.008359,95.939904
3224.972765,95.940340
3225.937171,95.919914
3226.901577,95.920773
3227.865982,95.930538
3228.830388,95.933238
3229.794794,95.938830
3230.759200,95.933309
3231.723605,95.924320
3232.688011,95.926985
3233.652417,95.936673
3234.616822,95.941780
3235.581228,95.943328
3236.545634,95.935658
3237.510040,95.909864
3238.474445,95.898884
3239.438851,95.903944
3240.403257,95.900290
3241.367663,95.894714
3242.332068,95.886899
3243.296474,95.891722
3244.260880,95.910854
3245.225285,95.910187
3246.189691,95.889144
3247.154097,95.869369
3248.118503,95.870724
3249.082908,95.883591
3250.047314,95.859811
3251.011720,95.824143
3251.976126,95.836921
3252.940531,95.852446
3253.904937,95.836673
3254.869343,95.829517
3255.833749,95.819278
3256.798154,95.794306
3257.762560,95.786360
3258.726966,95.806872
3259.691371,95.834225
3260.655777,95.822147
3261.620183,95.791806
3262.584589,95.791363
3263.548994,95.788428
3264.513400,95.786691
3265.477806,95.814056
3266.442212,95.832325
3267.406617,95.822051
3268.371023,95.811804
3269.335429,95.816547
3270.299835,95.814452
3271.264240,95.806896
3272.228646,95.806773
3273.193052,95.799131
3274.157457,95.797621
3275.121863,95.805885
3276.086269,95.800189
3277.050675,95.791064
3278.015080,95.794474
3278.979486,95.793515
3279.943892,95.781823
3280.908298,95.788134
3281.872703,95.800953
3282.837109,95.795881
3283.801515,95.787674
3284.765920,95.777116
3285.730326,95.765650
3286.694732,95.755124
3287.659138,95.747660
3288.623543,95.743836
3289.587949,95.735974
3290.552355,95.749749
3291.516761,95.770717
3292.481166,95.761747
3293.445572,95.750914
3294.409978,95.756623
3295.374384,95.763923
3296.338789,95.764142
3297.303195,95.765484
3298.267601,95.767069
3299.232006,95.749581
3300.196412,95.726997
3301.160818,95.727020
3302.125224,95.740067
3303.089629,95.741584
3304.054035,95.740612
3305.018441,95.754016
3305.982847,95.759614
3306.947252,95.739559
3307.911658,95.713639
3308.876064,95.704921
3309.840469,95.703845
3310.804875,95.693201
3311.769281,95.684698
3312.733687,95.697884
3313.698092,95.720257
3314.662498,95.717860
3315.626904,95.706212
3316.591310,95.700335
3317.555715,95.681036
3318.520121,95.686715
3319.484527,95.714901
3320.448933,95.706110
3321.413338,95.690379
3322.377744,95.699027
3323.342150,95.707475
3324.306555,95.692994
3325.270961,95.651239
3326.235367,95.643070
3327.199773,95.681963
3328.164178,95.678255
3329.128584,95.639213
3330.092990,95.638032
3331.057396,95.670263
3332.021801,95.696998
3332.986207,95.682341
3333.950613,95.653581
3334.915018,95.658660
3335.879424,95.659862
3336.843830,95.627481
3337.808236,95.600387
3338.772641,95.609795
3339.737047,95.631899
3340.701453,95.650533
3341.665859,95.658083
3342.630264,95.618340
3343.594670,95.590366
3344.559076,95.621471
3345.523482,95.631654
3346.487887,95.613532
3347.452293,95.615854
3348.416699,95.635466
3349.381104,95.643515
3350.345510,95.635661
3351.309916,95.648042
3352.274322,95.658243
3353.238727,95.637130
3354.203133,95.610578
3355.167539,95.588575
3356.131945,95.598640
3357.096350,95.634877
3358.060756,95.641584
3359.025162,95.623457
3359.989568,95.604521
3360.953973,95.604561
3361.918379,95.617937
3362.882785,95.602944
3363.847190,95.579552
3364.811596,95.563259
3365.776002,95.559778
3366.740408,95.584189
3367.704813,95.587654
3368.669219,95.582752
3369.633625,95.575663
3370.598031,95.526145
3371.562436,95.511217
3372.526842,95.554822
3373.491248,95.569502
3374.455653,95.534748
3375.420059,95.514222
3376.384465,95.537506
3377.348871,95.543250
3378.313276,95.513370
3379.277682,95.496030
3380.242088,95.517493
3381.206494,95.552520
3382.170899,95.556299
3383.135305,95.547133
3384.099711,95.554377
3385.064117,95.566123
3386.028522,95.559183
3386.992928,95.534873
3387.957334,95.525534
3388.921739,95.525729
3389.886145,95.528389
3390.850551,95.540102
3391.814957,95.525997
3392.779362,95.486560
3393.743768,95.463791
3394.708174,95.464392
3395.672580,95.477918
3396.636985,95.488566
3397.601391,95.481523
3398.565797,95.480039
3399.530202,95.492667
3400.494608,95.484510
3401.459014,95.465048
3402.423420,95.473611
3403.387825,95.504617
3404.352231,95.513886
3405.316637,95.497159
3406.281043,95.507615
3407.245448,95.516366
3408.209854,95.474431
3409.174260,95.440075
3410.138666,95.452438
3411.103071,95.483841
3412.067477,95.489896
3413.031883,95.473202
3413.996288,95.468229
3414.960694,95.461368
3415.925100,95.455097
3416.889506,95.456053
3417.853911,95.442636
3418.818317,95.424458
3419.782723,95.442563
3420.747129,95.472824
3421.711534,95.448886
3422.675940,95.428613
3423.640346,95.430248
3424.604751,95.431905
3425.569157,95.492798
3426.533563,95.506444
3427.497969,95.437954
3428.462374,95.429733
3429.426780,95.451106
3430.391186,95.469422
3431.355592,95.485550
3432.319997,95.452092
3433.284403,95.424041
3434.248809,95.412170
3435.213215,95.409805
3436.177620,95.452444
3437.142026,95.457397
3438.106432,95.435660
3439.070837,95.448552
3440.035243,95.426648
3440.999649,95.424551
3441.964055,95.474501
3442.928460,95.476102
3443.892866,95.448319
3444.857272,95.444132
3445.821678,95.460779
3446.786083,95.458589
3447.750489,95.430325
3448.714895,95.430950
3449.679301,95.441835
3450.643706,95.427227
3451.608112,95.397960
3452.572518,95.383350
3453.536923,95.401216
3454.501329,95.415204
3455.465735,95.431073
3456.430141,95.450081
3457.394546,95.422147
3458.358952,95.402670
3459.323358,95.439695
3460.287764,95.456382
3461.252169,95.442526
3462.216575,95.449526
3463.180981,95.448112
3464.145386,95.433604
3465.109792,95.454004
3466.074198,95.463436
3467.038604,95.424669
3468.003009,95.400679
3468.967415,95.395105
3469.931821,95.388528
3470.896227,95.397413
3471.860632,95.399819
3472.825038,95.405058
3473.789444,95.427243
3474.753850,95.429927
3475.718255,95.401253
3476.682661,95.364886
3477.647067,95.364491
3478.611472,95.399298
3479.575878,95.412219
3480.540284,95.401136
3481.504690,95.415610
3482.469095,95.435699
3483.433501,95.405261
3484.397907,95.373869
3485.362313,95.390162
3486.326718,95.424693
3487.291124,95.465604
3488.255530,95.475435
3489.219935,95.436131
3490.184341,95.404827
3491.148747,95.409225
3492.113153,95.425713
3493.077558,95.430911
3494.041964,95.418322
3495.006370,95.382101
3495.970776,95.355246
3496.935181,95.362933
3497.899587,95.375586
3498.863993,95.402417
3499.828399,95.419730
3500.792804,95.384356
3501.757210,95.368847
3502.721616,95.404318
3503.686021,95.420989
3504.650427,95.425196
3505.614833,95.442218
3506.579239,95.435485
3507.543644,95.410481
3508.508050,95.376695
3509.472456,95.347089
3510.436862,95.354200
3511.401267,95.363651
3512.365673,95.365831
3513.330079,95.370105
3514.294484,95.371358
3515.258890,95.383592
3516.223296,95.380377
3517.187702,95.384087
3518.152107,95.403000
3519.116513,95.379234
3520.080919,95.365228
3521.045325,95.384040
3522.009730,95.360806
3522.974136,95.324651
3523.938542,95.346096
3524.902948,95.405838
3525.867353,95.439270
3526.831759,95.415464
3527.796165,95.388707
3528.760570,95.395516
3529.724976,95.382855
3530.689382,95.354620
3531.653788,95.349318
3532.618193,95.356349
3533.582599,95.379855
3534.547005,95.393900
3535.511411,95.381357
3536.475816,95.385843
3537.440222,95.396290
3538.404628,95.389748
3539.369034,95.375784
3540.333439,95.345446
3541.297845,95.325148
3542.262251,95.345188
3543.226656,95.372067
3544.191062,95.369731
3545.155468,95.359847
3546.119874,95.378850
3547.084279,95.395169
3548.048685,95.386804
3549.013091,95.391119
3549.977497,95.407043
3550.941902,95.425364
3551.906308,95.434522
3552.870714,95.413317
3553.835119,95.397871
3554.799525,95.414924
3555.763931,95.428611
3556.728337,95.382696
3557.692742,95.329834
3558.657148,95.359331
3559.621554,95.394712
3560.585960,95.405714
3561.550365,95.423789
3562.514771,95.402161
3563.479177,95.377879
3564.443583,95.382675
3565.407988,95.399423
3566.372394,95.424448
3567.336800,95.424760
3568.301205,95.400998
3569.265611,95.368128
3570.230017,95.353183
3571.194423,95.354622
3572.158828,95.359813
3573.123234,95.391559
3574.087640,95.388059
3575.052046,95.351337
3576.016451,95.357546
3576.980857,95.367848
3577.945263,95.372832
3578.909668,95.392351
3579.874074,95.376967
3580.838480,95.358311
3581.802886,95.384018
3582.767291,95.382788
3583.731697,95.377866
3584.696103,95.407686
3585.660509,95.388823
3586.624914,95.374050
3587.589320,95.407631
3588.553726,95.403412
3589.518132,95.368491
3590.482537,95.349541
3591.446943,95.353609
3592.411349,95.358852
3593.375754,95.356487
3594.340160,95.373337
3595.304566,95.406918
3596.268972,95.426989
3597.233377,95.414865
3598.197783,95.397487
3599.162189,95.394433
3600.126595,95.394141
3601.091000,95.403662
3602.055406,95.403821
3603.019812,95.385955
3603.984217,95.384096
3604.948623,95.375709
3605.913029,95.346414
3606.877435,95.340367
3607.841840,95.345120
3608.806246,95.338151
3609.770652,95.338961
3610.735058,95.345231
3611.699463,95.344541
3612.663869,95.336917
3613.628275,95.346801
3614.592681,95.376657
3615.557086,95.384058
3616.521492,95.372148
3617.485898,95.374541
3618.450303,95.378315
3619.414709,95.371928
3620.379115,95.368877
3621.343521,95.352011
3622.307926,95.330652
3623.272332,95.341373
3624.236738,95.355592
3625.201144,95.355751
3626.165549,95.370387
3627.129955,95.405897
3628.094361,95.450256
3629.058767,95.464482
3630.023172,95.419047
3630.987578,95.350268
3631.951984,95.295387
3632.916389,95.287024
3633.880795,95.328006
3634.845201,95.343740
3635.809607,95.340553
3636.774012,95.343644
3637.738418,95.307125
3638.702824,95.293473
3639.667230,95.328709
3640.631635,95.361109
3641.596041,95.402666
3642.560447,95.420321
3643.524852,95.395669
3644.489258,95.351960
3645.453664,95.322905
3646.418070,95.349623
3647.382475,95.377310
3648.346881,95.375180
3649.311287,95.368361
3650.275693,95.358817
3651.240098,95.353544
3652.204504,95.331614
3653.168910,95.314035
3654.133316,95.329334
3655.097721,95.349924
3656.062127,95.373536
3657.026533,95.369201
3657.990938,95.329077
3658.955344,95.330710
3659.919750,95.357830
3660.884156,95.341964
3661.848561,95.335466
3662.812967,95.354605
3663.777373,95.322297
3664.741779,95.281342
3665.706184,95.293737
3666.670590,95.312520
3667.634996,95.335292
3668.599401,95.372478
3669.563807,95.393818
3670.528213,95.411021
3671.492619,95.405398
3672.457024,95.355990
3673.421430,95.343543
3674.385836,95.372435
3675.350242,95.361424
3676.314647,95.356841
3677.279053,95.380496
3678.243459,95.365185
3679.207865,95.348090
3680.172270,95.361060
3681.136676,95.360897
3682.101082,95.361640
3683.065487,95.371162
3684.029893,95.349725
3684.994299,95.341328
3685.958705,95.365273
3686.923110,95.357695
3687.887516,95.363389
3688.851922,95.383817
3689.816328,95.354012
3690.780733,95.343359
3691.745139,95.358625
3692.709545,95.362880
3693.673951,95.361777
3694.638356,95.322297
3695.602762,95.304030
3696.567168,95.343635
3697.531573,95.353269
3698.495979,95.335387
3699.460385,95.328579
3700.424791,95.314683
3701.389196,95.301832
3702.353602,95.303341
3703.318008,95.335392
3704.282414,95.390409
3705.246819,95.394290
3706.211225,95.366908
3707.175631,95.377955
3708.140036,95.360222
3709.104442,95.311276
3710.068848,95.322799
3711.033254,95.351717
3711.997659,95.360595
3712.962065,95.381104
3713.926471,95.389414
3714.890877,95.376901
3715.855282,95.353847
3716.819688,95.338607
3717.784094,95.350017
3718.748500,95.338413
3719.712905,95.303429
3720.677311,95.294906
3721.641717,95.290527
3722.606122,95.286636
3723.570528,95.302580
3724.534934,95.309859
3725.499340,95.301367
3726.463745,95.308071
3727.428151,95.312019
3728.392557,95.293188
3729.356963,95.306110
3730.321368,95.334356
3731.285774,95.333837
3732.250180,95.345485
3733.214585,95.354436
3734.178991,95.376750
3735.143397,95.430690
3736.107803,95.409418
3737.072208,95.339409
3738.036614,95.303943
3739.001020,95.269874
3739.965426,95.245580
3740.929831,95.241724
3741.894237,95.247205
3742.858643,95.271877
3743.823049,95.304501
3744.787454,95.328446
3745.751860,95.322830
3746.716266,95.308829
3747.680671,95.317269
3748.645077,95.331821
3749.609483,95.348578
3750.573889,95.359853
3751.538294,95.354778
3752.502700,95.329244
3753.467106,95.284429
3754.431512,95.285618
3755.395917,95.324083
3756.360323,95.308796
3757.324729,95.272699
3758.289134,95.264684
3759.253540,95.255532
3760.217946,95.255670
3761.182352,95.268480
3762.146757,95.249696
3763.111163,95.207815
3764.075569,95.208215
3765.039975,95.240228
3766.004380,95.256459
3766.968786,95.273283
3767.933192,95.282353
3768.897598,95.277742
3769.862003,95.293132
3770.826409,95.296874
3771.790815,95.263173
3772.755220,95.262231
3773.719626,95.298016
3774.684032,95.286090
3775.648438,95.257547
3776.612843,95.258146
3777.577249,95.254156
3778.541655,95.263642
3779.506061,95.281863
3780.470466,95.272790
3781.434872,95.256805
3782.399278,95.250947
3783.363684,95.249695
3784.328089,95.262703
3785.292495,95.287610
3786.256901,95.286145
3787.221306,95.275240
3788.185712,95.276335
3789.150118,95.265496
3790.114524,95.277420
3791.078929,95.296328
3792.043335,95.260972
3793.007741,95.229229
3793.972147,95.254284
3794.936552,95.273641
3795.900958,95.244712
3796.865364,95.234884
3797.829769,95.280613
3798.794175,95.293781
3799.758581,95.248460
3800.722987,95.250686
3801.687392,95.299705
3802.651798,95.293868
3803.616204,95.262893
3804.580610,95.271418
3805.545015,95.303379
3806.509421,95.313233
3807.473827,95.281617
3808.438233,95.243738
3809.402638,95.223838
3810.367044,95.214498
3811.331450,95.215508
3812.295855,95.225387
3813.260261,95.217046
3814.224667,95.200767
3815.189073,95.227393
3816.153478,95.265429
3817.117884,95.269317
3818.082290,95.245052
3819.046696,95.220375
3820.011101,95.236098
3820.975507,95.245806
3821.939913,95.217274
3822.904318,95.202362
3823.868724,95.214689
3824.833130,95.224001
3825.797536,95.189206
3826.761941,95.156919
3827.726347,95.181741
3828.690753,95.210723
3829.655159,95.210657
3830.619564,95.184165
3831.583970,95.160706
3832.548376,95.159187
3833.512782,95.168894
3834.477187,95.210199
3835.441593,95.233623
3836.405999,95.219425
3837.370404,95.248803
3838.334810,95.284634
3839.299216,95.265294
3840.263622,95.242699
3841.228027,95.243821
3842.192433,95.239229
3843.156839,95.225843
3844.121245,95.226905
3845.085650,95.228487
3846.050056,95.221318
3847.014462,95.214165
3847.978867,95.204056
3848.943273,95.207383
3849.907679,95.210939
3850.872085,95.205519
3851.836490,95.240883
3852.800896,95.297039
3853.765302,95.295480
3854.729708,95.245071
3855.694113,95.206509
3856.658519,95.189802
3857.622925,95.179805
3858.587331,95.176452
3859.551736,95.193927
3860.516142,95.217368
3861.480548,95.191735
3862.444953,95.149141
3863.409359,95.151845
3864.373765,95.163107
3865.338171,95.188559
3866.302576,95.229974
3867.266982,95.203157
3868.231388,95.155851
3869.195794,95.188003
3870.160199,95.248887
3871.124605,95.270965
3872.089011,95.248174
3873.053417,95.212320
3874.017822,95.210264
3874.982228,95.213716
3875.946634,95.188284
3876.911039,95.170199
3877.875445,95.188723
3878.839851,95.221205
3879.804257,95.225824
3880.768662,95.201564
3881.733068,95.179539
3882.697474,95.189057
3883.661880,95.233615
3884.626285,95.273177
3885.590691,95.275082
3886.555097,95.231697
3887.519502,95.180626
3888.483908,95.174184
3889.448314,95.186295
3890.412720,95.208930
3891.377125,95.263100
3892.341531,95.266885
3893.305937,95.202298
3894.270343,95.178207
3895.234748,95.214387
3896.199154,95.234602
3897.163560,95.210839
3898.127966,95.184301
3899.092371,95.185289
3900.056777,95.208723
3901.021183,95.218297
3901.985588,95.198418
3902.949994,95.215429
3903.914400,95.252803
3904.878806,95.222260
3905.843211,95.182071
3906.807617,95.185811
3907.772023,95.188660
3908.736429,95.205533
3909.700834,95.218700
3910.665240,95.183246
3911.629646,95.180988
3912.594051,95.225144
3913.558457,95.230720
3914.522863,95.197866
3915.487269,95.160326
3916.451674,95.171445
3917.416080,95.236409
3918.380486,95.275699
3919.344892,95.246791
3920.309297,95.197788
3921.273703,95.215283
3922.238109,95.254981
3923.202515,95.255636
3924.166920,95.251867
3925.131326,95.264918
3926.095732,95.300537
3927.060137,95.281993
3928.024543,95.231869
3928.988949,95.254772
3929.953355,95.264370
3930.917760,95.239010
3931.882166,95.216172
3932.846572,95.170167
3933.810978,95.178381
3934.775383,95.245717
3935.739789,95.272949
3936.704195,95.260307
3937.668600,95.254331
3938.633006,95.267115
3939.597412,95.294267
3940.561818,95.299514
3941.526223,95.275489
3942.490629,95.281038
3943.455035,95.302431
3944.419441,95.290746
3945.383846,95.275237
3946.348252,95.276187
3947.312658,95.267835
3948.277064,95.254957
3949.241469,95.271507
3950.205875,95.277719
3951.170281,95.239604
3952.134686,95.219142
3953.099092,95.230546
3954.063498,95.233172
3955.027904,95.230230
3955.992309,95.242711
3956.956715,95.251455
3957.921121,95.254316
3958.885527,95.291047
3959.849932,95.306419
3960.814338,95.265833
3961.778744,95.248412
3962.743150,95.238293
3963.707555,95.231904
3964.671961,95.270554
3965.636367,95.267890
3966.600772,95.242932
3967.565178,95.265899
3968.529584,95.275313
3969.493990,95.290387
3970.458395,95.295878
3971.422801,95.259625
3972.387207,95.262919
3973.351613,95.265115
3974.316018,95.238512
3975.280424,95.232094
3976.244830,95.226081
3977.209235,95.243346
3978.173641,95.274826
3979.138047,95.267634
3980.102453,95.277525
3981.066858,95.337309
3982.031264,95.340616
3982.995670,95.272630
3983.960076,95.251367
3984.924481,95.274141
3985.888887,95.277267
3986.853293,95.262977
3987.817699,95.244681
3988.782104,95.229887
3989.746510,95.244273
3990.710916,95.292371
3991.675321,95.314385
3992.639727,95.308620
3993.604133,95.309041
3994.568539,95.303522
3995.532944,95.295129
3996.497350,95.285896
3997.461756,95.284044
3998.426162,95.269846
3999.390567,95.247323
4000.354973,95.287193
