XLabel,Wavenumber
YLabel,%Transmittance
FileType,%Transmittance
DisplayDirection,20300
PeakDirection,20311
549.711267,77.589624
550.675673,75.213332
551.640078,72.551716
552.604484,69.600915
553.568890,68.251465
554.533295,68.750251
555.497701,70.855750
556.462107,74.922370
557.426513,78.702678
558.390918,81.037307
559.355324,83.577283
560.319730,85.718361
561.284136,86.355815
562.248541,87.082636
563.212947,88.336623
564.177353,89.388484
565.141758,90.408668
566.106164,90.806146
567.070570,90.583035
568.034976,90.767950
568.999381,91.289035
569.963787,91.789985
570.928193,92.055832
571.892599,91.838426
572.857004,91.843325
573.821410,92.361161
574.785816,92.462816
575.750222,92.481932
576.714627,92.927679
577.679033,93.027945
578.643439,92.850290
579.607844,92.720284
580.572250,92.589392
581.536656,92.606201
582.501062,92.610803
583.465467,92.622147
584.429873,92.820085
585.394279,92.969885
586.358685,93.059169
587.323090,93.139846
588.287496,92.970696
589.251902,93.007979
590.216307,93.415586
591.180713,93.081880
592.145119,92.045071
593.109525,91.576897
594.073930,91.773314
595.038336,91.956493
596.002742,91.910907
596.967148,91.734506
597.931553,91.588453
598.895959,91.524219
599.860365,91.366213
600.824771,91.009071
601.789176,90.573536
602.753582,90.269856
603.717988,90.033154
604.682393,89.591522
605.646799,89.007167
606.611205,88.385281
607.575611,87.683613
608.540016,87.031943
609.504422,86.427688
610.468828,85.636030
611.433234,84.664120
612.397639,83.660293
613.362045,82.621184
614.326451,81.658745
615.290857,80.777451
616.255262,79.695854
617.219668,78.395247
618.184074,77.045326
619.148479,75.613647
620.112885,74.062684
621.077291,72.489136
622.041697,70.913815
623.006102,69.479591
623.970508,68.377585
624.934914,67.590824
625.899320,67.339045
626.863725,67.712560
627.828131,68.411235
628.792537,69.252040
629.756942,69.953411
630.721348,70.326813
631.685754,70.435261
632.650160,70.159625
633.614565,69.415952
634.578971,68.295211
635.543377,67.037176
636.507783,65.894181
637.472188,64.992006
638.436594,64.594582
639.401000,64.859652
640.365406,65.755578
641.329811,67.286128
642.294217,69.278603
643.258623,71.462960
644.223028,73.692018
645.187434,75.881388
646.151840,77.932070
647.116246,79.746564
648.080651,81.340367
649.045057,82.803642
650.009463,84.114024
650.973869,85.204553
651.938274,86.107645
652.902680,86.918488
653.867086,87.647692
654.831491,88.261711
655.795897,88.814580
656.760303,89.332001
657.724709,89.782550
658.689114,90.183882
659.653520,90.572078
660.617926,90.948798
661.582332,91.296333
662.546737,91.655176
663.511143,92.024670
664.475549,92.341571
665.439955,92.618679
666.404360,92.862673
667.368766,93.096963
668.333172,93.376762
669.297577,93.662946
670.261983,93.898500
671.226389,94.089057
672.190795,94.292520
673.155200,94.499863
674.119606,94.652827
675.084012,94.785181
676.048418,94.916496
677.012823,95.017737
677.977229,95.134778
678.941635,95.296597
679.906040,95.420165
680.870446,95.492843
681.834852,95.590867
682.799258,95.702638
683.763663,95.780291
684.728069,95.817001
685.692475,95.827360
686.656881,95.814913
687.621286,95.786736
688.585692,95.779154
689.550098,95.777570
690.514504,95.755131
691.478909,95.705692
692.443315,95.613734
693.407721,95.527026
694.372126,95.464770
695.336532,95.382369
696.300938,95.275330
697.265344,95.162272
698.229749,95.091544
699.194155,95.058280
700.158561,95.018141
701.122967,94.989352
702.087372,94.935779
703.051778,94.864021
704.016184,94.861093
704.980590,94.892760
705.944995,94.901910
706.909401,94.907652
707.873807,94.930257
708.838212,94.936649
709.802618,94.902923
710.767024,94.877125
711.731430,94.859394
712.695835,94.830196
713.660241,94.790889
714.624647,94.696404
715.589053,94.543831
716.553458,94.358370
717.517864,94.143623
718.482270,93.952591
719.446675,93.857383
720.411081,93.872832
721.375487,93.958001
722.339893,94.071335
723.304298,94.209462
724.268704,94.376832
725.233110,94.545988
726.197516,94.706550
727.161921,94.887297
728.126327,95.090191
729.090733,95.305384
730.055139,95.520207
731.019544,95.706474
731.983950,95.848406
732.948356,95.908825
733.912761,95.874382
734.877167,95.762204
735.841573,95.596503
736.805979,95.422539
737.770384,95.168701
738.734790,94.880666
739.699196,94.787769
740.663602,94.816246
741.628007,94.829689
742.592413,94.894022
743.556819,95.008417
744.521224,95.173273
745.485630,95.381073
746.450036,95.594531
747.414442,95.831090
748.378847,96.083565
749.343253,96.342634
750.307659,96.571327
751.272065,96.726028
752.236470,96.828976
753.200876,96.900674
754.165282,96.946813
755.129688,96.963903
756.094093,96.957757
757.058499,96.946635
758.022905,96.936810
758.987310,96.921267
759.951716,96.872549
760.916122,96.796326
761.880528,96.712640
762.844933,96.617460
763.809339,96.523535
764.773745,96.427656
765.738151,96.311554
766.702556,96.179091
767.666962,96.050577
768.631368,95.953167
769.595773,95.867404
770.560179,95.772076
771.524585,95.715357
772.488991,95.708892
773.453396,95.702285
774.417802,95.682775
775.382208,95.671359
776.346614,95.675350
777.311019,95.677849
778.275425,95.655325
779.239831,95.622535
780.204237,95.613456
781.168642,95.602890
782.133048,95.570975
783.097454,95.551046
784.061859,95.536575
785.026265,95.526693
785.990671,95.524221
786.955077,95.509848
787.919482,95.529432
788.883888,95.579328
789.848294,95.619745
790.812700,95.688132
791.777105,95.767307
792.741511,95.823459
793.705917,95.893205
794.670323,95.982525
795.634728,96.065574
796.599134,96.136034
797.563540,96.200394
798.527945,96.268630
799.492351,96.327361
800.456757,96.360724
801.421163,96.394614
802.385568,96.435236
803.349974,96.472730
804.314380,96.520918
805.278786,96.558458
806.243191,96.577034
807.207597,96.612342
808.172003,96.671773
809.136408,96.738443
810.100814,96.791180
811.065220,96.827708
812.029626,96.886476
812.994031,96.976316
813.958437,97.016398
814.922843,96.981096
815.887249,96.982625
816.851654,97.045403
817.816060,97.081469
818.780466,97.105172
819.744872,97.161963
820.709277,97.215595
821.673683,97.250203
822.638089,97.295477
823.602494,97.367679
824.566900,97.450839
825.531306,97.528203
826.495712,97.612680
827.460117,97.690328
828.424523,97.742856
829.388929,97.789205
830.353335,97.832742
831.317740,97.877320
832.282146,97.915679
833.246552,97.944684
834.210957,97.984112
835.175363,98.000997
836.139769,97.998268
837.104175,98.017244
838.068580,98.028987
839.032986,98.028632
839.997392,98.026991
840.961798,98.011908
841.926203,98.012319
842.890609,98.032906
843.855015,98.042793
844.819421,98.041754
845.783826,98.041191
846.748232,98.045878
847.712638,98.057148
848.677043,98.067244
849.641449,98.064359
850.605855,98.048501
851.570261,98.035504
852.534666,98.045801
853.499072,98.061833
854.463478,98.055212
855.427884,98.058065
856.392289,98.073169
857.356695,98.070432
858.321101,98.077597
859.285507,98.096848
860.249912,98.107844
861.214318,98.120430
862.178724,98.129980
863.143129,98.137455
864.107535,98.151313
865.071941,98.166994
866.036347,98.180565
867.000752,98.191698
867.965158,98.208467
868.929564,98.221575
869.893970,98.218919
870.858375,98.230703
871.822781,98.263027
872.787187,98.282176
873.751592,98.288465
874.715998,98.294608
875.680404,98.306490
876.644810,98.328679
877.609215,98.353430
878.573621,98.375104
879.538027,98.390381
880.502433,98.411828
881.466838,98.445441
882.431244,98.474364
883.395650,98.494662
884.360056,98.506737
885.324461,98.525624
886.288867,98.556815
887.253273,98.577556
888.217678,98.595240
889.182084,98.615534
890.146490,98.620468
891.110896,98.614622
892.075301,98.617776
893.039707,98.634862
894.004113,98.650934
894.968519,98.656756
895.932924,98.657102
896.897330,98.659259
897.861736,98.663083
898.826141,98.661617
899.790547,98.658843
900.754953,98.660680
901.719359,98.665078
902.683764,98.664303
903.648170,98.654458
904.612576,98.648489
905.576982,98.656493
906.541387,98.672404
907.505793,98.678644
908.470199,98.667217
909.434605,98.653741
910.399010,98.649686
911.363416,98.650304
912.327822,98.644137
913.292227,98.636419
914.256633,98.638349
915.221039,98.632873
916.185445,98.616675
917.149850,98.606573
918.114256,98.604676
919.078662,98.605414
920.043068,98.600405
921.007473,98.598210
921.971879,98.602004
922.936285,98.596814
923.900690,98.590284
924.865096,98.591225
925.829502,98.592542
926.793908,98.587031
927.758313,98.579215
928.722719,98.575343
929.687125,98.565230
930.651531,98.548271
931.615936,98.526471
932.580342,98.504615
933.544748,98.491397
934.509154,98.472372
935.473559,98.456525
936.437965,98.463251
937.402371,98.476302
938.366776,98.488079
939.331182,98.503444
940.295588,98.517805
941.259994,98.529920
942.224399,98.542596
943.188805,98.555291
944.153211,98.570223
945.117617,98.580893
946.082022,98.578001
947.046428,98.581881
948.010834,98.598397
948.975240,98.608310
949.939645,98.618694
950.904051,98.630074
951.868457,98.627836
952.832862,98.624011
953.797268,98.633568
954.761674,98.644478
955.726080,98.648622
956.690485,98.656882
957.654891,98.661822
958.619297,98.650095
959.583703,98.637594
960.548108,98.637926
961.512514,98.642044
962.476920,98.640887
963.441325,98.633675
964.405731,98.625400
965.370137,98.621035
966.334543,98.616407
967.298948,98.606388
968.263354,98.597470
969.227760,98.598589
970.192166,98.599898
971.156571,98.592142
972.120977,98.586368
973.085383,98.578731
974.049789,98.566951
975.014194,98.566640
975.978600,98.567842
976.943006,98.559022
977.907411,98.545276
978.871817,98.525688
979.836223,98.501219
980.800629,98.476802
981.765034,98.462249
982.729440,98.452938
983.693846,98.432385
984.658252,98.410041
985.622657,98.394192
986.587063,98.377352
987.551469,98.357643
988.515874,98.329849
989.480280,98.297006
990.444686,98.271695
991.409092,98.255138
992.373497,98.234390
993.337903,98.194638
994.302309,98.150006
995.266715,98.116914
996.231120,98.082466
997.195526,98.042777
998.159932,98.000782
999.124338,97.954896
1000.088743,97.906392
1001.053149,97.855986
1002.017555,97.808121
1002.981960,97.751903
1003.946366,97.680565
1004.910772,97.606749
1005.875178,97.529341
1006.839583,97.446650
1007.803989,97.359365
1008.768395,97.266310
1009.732801,97.177693
1010.697206,97.093352
1011.661612,97.002886
1012.626018,96.910377
1013.590423,96.827075
1014.554829,96.755418
1015.519235,96.688210
1016.483641,96.617672
1017.448046,96.554888
1018.412452,96.510228
1019.376858,96.473022
1020.341264,96.443195
1021.305669,96.418014
1022.270075,96.389370
1023.234481,96.367171
1024.198887,96.350345
1025.163292,96.333613
1026.127698,96.322105
1027.092104,96.310622
1028.056509,96.289908
1029.020915,96.264880
1029.985321,96.242358
1030.949727,96.217866
1031.914132,96.197681
1032.878538,96.179748
1033.842944,96.144997
1034.807350,96.110741
1035.771755,96.094989
1036.736161,96.072526
1037.700567,96.036680
1038.664973,96.002655
1039.629378,95.964325
1040.593784,95.918918
1041.558190,95.874705
1042.522595,95.828676
1043.487001,95.770602
1044.451407,95.698738
1045.415813,95.631201
1046.380218,95.576722
1047.344624,95.519793
1048.309030,95.461695
1049.273436,95.409988
1050.237841,95.348402
1051.202247,95.275577
1052.166653,95.207767
1053.131058,95.144460
1054.095464,95.083830
1055.059870,95.019880
1056.024276,94.941330
1056.988681,94.861494
1057.953087,94.789678
1058.917493,94.710803
1059.881899,94.621941
1060.846304,94.532587
1061.810710,94.436047
1062.775116,94.325269
1063.739522,94.216149
1064.703927,94.119140
1065.668333,94.014328
1066.632739,93.888889
1067.597144,93.755187
1068.561550,93.612075
1069.525956,93.457977
1070.490362,93.302191
1071.454767,93.140232
1072.419173,92.980279
1073.383579,92.819903
1074.347985,92.641111
1075.312390,92.456748
1076.276796,92.270491
1077.241202,92.068999
1078.205607,91.852832
1079.170013,91.628232
1080.134419,91.400766
1081.098825,91.166063
1082.063230,90.916506
1083.027636,90.649168
1083.992042,90.372856
1084.956448,90.105113
1085.920853,89.839834
1086.885259,89.552043
1087.849665,89.244417
1088.814071,88.932295
1089.778476,88.610068
1090.742882,88.275811
1091.707288,87.934085
1092.671693,87.579886
1093.636099,87.203404
1094.600505,86.805691
1095.564911,86.402107
1096.529316,85.991818
1097.493722,85.571303
1098.458128,85.138987
1099.422534,84.673237
1100.386939,84.173604
1101.351345,83.665324
1102.315751,83.148140
1103.280156,82.602103
1104.244562,82.027754
1105.208968,81.432581
1106.173374,80.804933
1107.137779,80.145596
1108.102185,79.462752
1109.066591,78.734090
1110.030997,77.947092
1110.995402,77.131077
1111.959808,76.294110
1112.924214,75.408784
1113.888620,74.468514
1114.853025,73.473869
1115.817431,72.411921
1116.781837,71.277651
1117.746242,70.072745
1118.710648,68.796605
1119.675054,67.437041
1120.639460,65.981170
1121.603865,64.434870
1122.568271,62.791010
1123.532677,61.013725
1124.497083,59.073212
1125.461488,56.942726
1126.425894,54.612339
1127.390300,52.110365
1128.354706,49.496887
1129.319111,46.795092
1130.283517,44.032501
1131.247923,41.254666
1132.212328,38.478279
1133.176734,35.673327
1134.141140,32.843983
1135.105546,30.053585
1136.069951,27.343952
1137.034357,24.707939
1137.998763,22.156407
1138.963169,19.744734
1139.927574,17.547804
1140.891980,15.641551
1141.856386,14.074025
1142.820791,12.859994
1143.785197,12.012044
1144.749603,11.545458
1145.714009,11.478373
1146.678414,11.802388
1147.642820,12.524028
1148.607226,13.674053
1149.571632,15.243762
1150.536037,17.189808
1151.500443,19.467295
1152.464849,21.998431
1153.429255,24.674646
1154.393660,27.406826
1155.358066,30.127130
1156.322472,32.783652
1157.286877,35.343687
1158.251283,37.771202
1159.215689,40.066763
1160.180095,42.222006
1161.144500,44.234232
1162.108906,46.088046
1163.073312,47.769699
1164.037718,49.298938
1165.002123,50.683492
1165.966529,51.914528
1166.930935,53.000550
1167.895340,53.960849
1168.859746,54.832956
1169.824152,55.654842
1170.788558,56.442707
1171.752963,57.202624
1172.717369,57.934776
1173.681775,58.613917
1174.646181,59.179192
1175.610586,59.574893
1176.574992,59.764320
1177.539398,59.693079
1178.503804,59.323735
1179.468209,58.665067
1180.432615,57.730735
1181.397021,56.538221
1182.361426,55.125808
1183.325832,53.533902
1184.290238,51.789970
1185.254644,49.914864
1186.219049,47.946322
1187.183455,45.924095
1188.147861,43.869097
1189.112267,41.799933
1190.076672,39.754397
1191.041078,37.771213
1192.005484,35.869905
1192.969889,34.060303
1193.934295,32.365865
1194.898701,30.808897
1195.863107,29.408152
1196.827512,28.180210
1197.791918,27.163532
1198.756324,26.390501
1199.720730,25.864866
1200.685135,25.624581
1201.649541,25.696931
1202.613947,26.077891
1203.578353,26.769009
1204.542758,27.739167
1205.507164,28.946479
1206.471570,30.356695
1207.435975,31.908087
1208.400381,33.539049
1209.364787,35.206655
1210.329193,36.879833
1211.293598,38.531535
1212.258004,40.135959
1213.222410,41.685252
1214.186816,43.185231
1215.151221,44.638797
1216.115627,46.040654
1217.080033,47.384637
1218.044439,48.680648
1219.008844,49.942256
1219.973250,51.170903
1220.937656,52.362108
1221.902061,53.515322
1222.866467,54.639055
1223.830873,55.736123
1224.795279,56.807970
1225.759684,57.856059
1226.724090,58.886686
1227.688496,59.913402
1228.652902,60.936136
1229.617307,61.955838
1230.581713,62.974866
1231.546119,63.989768
1232.510524,65.009090
1233.474930,66.032349
1234.439336,67.046516
1235.403742,68.052247
1236.368147,69.056634
1237.332553,70.056775
1238.296959,71.038528
1239.261365,71.999043
1240.225770,72.949147
1241.190176,73.890935
1242.154582,74.819606
1243.118988,75.723139
1244.083393,76.595967
1245.047799,77.454589
1246.012205,78.299222
1246.976610,79.113112
1247.941016,79.901576
1248.905422,80.676637
1249.869828,81.439703
1250.834233,82.197397
1251.798639,82.956648
1252.763045,83.718643
1253.727451,84.493952
1254.691856,85.293910
1255.656262,86.119125
1256.620668,86.961397
1257.585073,87.817914
1258.549479,88.698330
1259.513885,89.581239
1260.478291,90.431468
1261.442696,91.243135
1262.407102,91.993717
1263.371508,92.661648
1264.335914,93.258014
1265.300319,93.779417
1266.264725,94.228433
1267.229131,94.625026
1268.193537,94.967824
1269.157942,95.258791
1270.122348,95.508218
1271.086754,95.720867
1272.051159,95.911420
1273.015565,96.082548
1273.979971,96.222938
1274.944377,96.339765
1275.908782,96.445511
1276.873188,96.539003
1277.837594,96.615328
1278.802000,96.678023
1279.766405,96.735206
1280.730811,96.787926
1281.695217,96.833024
1282.659622,96.867233
1283.624028,96.891219
1284.588434,96.912193
1285.552840,96.930989
1286.517245,96.944070
1287.481651,96.959933
1288.446057,96.983830
1289.410463,97.008103
1290.374868,97.035205
1291.339274,97.068292
1292.303680,97.097738
1293.268086,97.125605
1294.232491,97.158223
1295.196897,97.188585
1296.161303,97.214974
1297.125708,97.242259
1298.090114,97.273220
1299.054520,97.315033
1300.018926,97.371402
1300.983331,97.437627
1301.947737,97.513323
1302.912143,97.601792
1303.876549,97.707813
1304.840954,97.835961
1305.805360,97.969872
1306.769766,98.088702
1307.734172,98.198775
1308.698577,98.311673
1309.662983,98.420194
1310.627389,98.506895
1311.591794,98.572420
1312.556200,98.630496
1313.520606,98.679269
1314.485012,98.719939
1315.449417,98.761779
1316.413823,98.802935
1317.378229,98.835449
1318.342635,98.861171
1319.307040,98.888713
1320.271446,98.911642
1321.235852,98.926237
1322.200257,98.941518
1323.164663,98.956524
1324.129069,98.968397
1325.093475,98.983040
1326.057880,99.000283
1327.022286,99.008722
1327.986692,99.014084
1328.951098,99.030942
1329.915503,99.052115
1330.879909,99.066925
1331.844315,99.072706
1332.808721,99.074137
1333.773126,99.078580
1334.737532,99.090396
1335.701938,99.111836
1336.666343,99.131299
1337.630749,99.139473
1338.595155,99.145158
1339.559561,99.154352
1340.523966,99.159687
1341.488372,99.158990
1342.452778,99.161883
1343.417184,99.165889
1344.381589,99.164539
1345.345995,99.163776
1346.310401,99.164076
1347.274806,99.166464
1348.239212,99.171682
1349.203618,99.169798
1350.168024,99.169994
1351.132429,99.179827
1352.096835,99.183743
1353.061241,99.186709
1354.025647,99.193888
1354.990052,99.197620
1355.954458,99.199847
1356.918864,99.194673
1357.883270,99.188436
1358.847675,99.193442
1359.812081,99.199793
1360.776487,99.201820
1361.740892,99.203330
1362.705298,99.211402
1363.669704,99.221606
1364.634110,99.217991
1365.598515,99.209759
1366.562921,99.212678
1367.527327,99.222804
1368.491733,99.230447
1369.456138,99.232201
1370.420544,99.235619
1371.384950,99.243360
1372.349355,99.252216
1373.313761,99.258848
1374.278167,99.257804
1375.242573,99.255690
1376.206978,99.253824
1377.171384,99.247479
1378.135790,99.244598
1379.100196,99.245671
1380.064601,99.245994
1381.029007,99.248607
1381.993413,99.255974
1382.957819,99.261284
1383.922224,99.256324
1384.886630,99.246855
1385.851036,99.244641
1386.815441,99.250450
1387.779847,99.253060
1388.744253,99.249301
1389.708659,99.243130
1390.673064,99.234341
1391.637470,99.222346
1392.601876,99.209254
1393.566282,99.203432
1394.530687,99.198082
1395.495093,99.186094
1396.459499,99.173795
1397.423905,99.160331
1398.388310,99.150927
1399.352716,99.134465
1400.317122,99.109290
1401.281527,99.100193
1402.245933,99.093911
1403.210339,99.082914
1404.174745,99.077826
1405.139150,99.065990
1406.103556,99.047497
1407.067962,99.032181
1408.032368,99.025302
1408.996773,99.020798
1409.961179,99.007839
1410.925585,98.997660
1411.889990,98.986985
1412.854396,98.974406
1413.818802,98.974278
1414.783208,98.969887
1415.747613,98.962610
1416.712019,98.961332
1417.676425,98.957020
1418.640831,98.969229
1419.605236,98.978976
1420.569642,98.962837
1421.534048,98.954707
1422.498454,98.950135
1423.462859,98.944810
1424.427265,98.950194
1425.391671,98.948168
1426.356076,98.943240
1427.320482,98.941944
1428.284888,98.936539
1429.249294,98.932725
1430.213699,98.931327
1431.178105,98.929944
1432.142511,98.927175
1433.106917,98.922696
1434.071322,98.914034
1435.035728,98.911207
1436.000134,98.928435
1436.964539,98.928959
1437.928945,98.899621
1438.893351,98.884306
1439.857757,98.883046
1440.822162,98.884602
1441.786568,98.891178
1442.750974,98.889100
1443.715380,98.873386
1444.679785,98.853999
1445.644191,98.844787
1446.608597,98.844899
1447.573003,98.842313
1448.537408,98.831713
1449.501814,98.816802
1450.466220,98.816259
1451.430625,98.825663
1452.395031,98.822404
1453.359437,98.815708
1454.323843,98.811779
1455.288248,98.819964
1456.252654,98.854115
1457.217060,98.867943
1458.181466,98.849404
1459.145871,98.842550
1460.110277,98.839145
1461.074683,98.840357
1462.039089,98.849751
1463.003494,98.853820
1463.967900,98.875576
1464.932306,98.899782
1465.896711,98.892731
1466.861117,98.883420
1467.825523,98.890489
1468.789929,98.896575
1469.754334,98.898497
1470.718740,98.916381
1471.683146,98.946832
1472.647552,98.960885
1473.611957,98.958345
1474.576363,98.961214
1475.540769,98.977526
1476.505174,98.995942
1477.469580,99.006643
1478.433986,99.018208
1479.398392,99.034121
1480.362797,99.046418
1481.327203,99.050147
1482.291609,99.047360
1483.256015,99.048953
1484.220420,99.058354
1485.184826,99.068647
1486.149232,99.077666
1487.113638,99.084844
1488.078043,99.090498
1489.042449,99.097456
1490.006855,99.106313
1490.971260,99.106192
1491.935666,99.101793
1492.900072,99.112053
1493.864478,99.119699
1494.828883,99.126949
1495.793289,99.143780
1496.757695,99.135467
1497.722101,99.127373
1498.686506,99.142381
1499.650912,99.140992
1500.615318,99.134924
1501.579723,99.136346
1502.544129,99.126465
1503.508535,99.121773
1504.472941,99.130404
1505.437346,99.145947
1506.401752,99.164291
1507.366158,99.154239
1508.330564,99.117668
1509.294969,99.092918
1510.259375,99.086261
1511.223781,99.086718
1512.188187,99.081143
1513.152592,99.067044
1514.116998,99.054823
1515.081404,99.045576
1516.045809,99.050494
1517.010215,99.064770
1517.974621,99.053303
1518.939027,99.030755
1519.903432,99.039903
1520.867838,99.054901
1521.832244,99.034012
1522.796650,99.001317
1523.761055,98.983902
1524.725461,98.981955
1525.689867,98.975189
1526.654272,98.957905
1527.618678,98.951504
1528.583084,98.943865
1529.547490,98.933291
1530.511895,98.928330
1531.476301,98.916254
1532.440707,98.919598
1533.405113,98.933151
1534.369518,98.916382
1535.333924,98.888477
1536.298330,98.869887
1537.262736,98.858015
1538.227141,98.874454
1539.191547,98.896296
1540.155953,98.866310
1541.120358,98.831204
1542.084764,98.818403
1543.049170,98.787300
1544.013576,98.767078
1544.977981,98.769137
1545.942387,98.760420
1546.906793,98.753762
1547.871199,98.756048
1548.835604,98.761365
1549.800010,98.772533
1550.764416,98.784087
1551.728822,98.790729
1552.693227,98.801529
1553.657633,98.834983
1554.622039,98.865920
1555.586444,98.863928
1556.550850,98.874057
1557.515256,98.919288
1558.479662,98.960723
1559.444067,98.977639
1560.408473,98.964485
1561.372879,98.943921
1562.337285,98.945706
1563.301690,98.953400
1564.266096,98.965934
1565.230502,98.984029
1566.194907,98.989207
1567.159313,98.987287
1568.123719,98.990996
1569.088125,99.008250
1570.052530,99.020763
1571.016936,99.014924
1571.981342,99.015940
1572.945748,99.015376
1573.910153,99.003783
1574.874559,99.025714
1575.838965,99.070134
1576.803371,99.060735
1577.767776,99.019616
1578.732182,99.006237
1579.696588,99.018025
1580.660993,99.036986
1581.625399,99.044107
1582.589805,99.042087
1583.554211,99.041124
1584.518616,99.034137
1585.483022,99.029771
1586.447428,99.030394
1587.411834,99.027250
1588.376239,99.031421
1589.340645,99.045215
1590.305051,99.047023
1591.269456,99.040702
1592.233862,99.047641
1593.198268,99.059791
1594.162674,99.066701
1595.127079,99.066255
1596.091485,99.056240
1597.055891,99.049532
1598.020297,99.055057
1598.984702,99.061497
1599.949108,99.060982
1600.913514,99.064634
1601.877920,99.074513
1602.842325,99.075887
1603.806731,99.073171
1604.771137,99.078600
1605.735542,99.078829
1606.699948,99.064865
1607.664354,99.051902
1608.628760,99.050827
1609.593165,99.059215
1610.557571,99.064114
1611.521977,99.060709
1612.486383,99.060554
1613.450788,99.056340
1614.415194,99.042788
1615.379600,99.050472
1616.344005,99.076956
1617.308411,99.066896
1618.272817,99.022210
1619.237223,98.996395
1620.201628,98.997725
1621.166034,98.999846
1622.130440,99.003989
1623.094846,99.012818
1624.059251,99.005583
1625.023657,98.985326
1625.988063,98.963988
1626.952469,98.952962
1627.916874,98.954922
1628.881280,98.946304
1629.845686,98.935176
1630.810091,98.935096
1631.774497,98.930853
1632.738903,98.917822
1633.703309,98.908461
1634.667714,98.922026
1635.632120,98.936099
1636.596526,98.917766
1637.560932,98.895128
1638.525337,98.883798
1639.489743,98.874051
1640.454149,98.862440
1641.418555,98.853811
1642.382960,98.858855
1643.347366,98.858797
1644.311772,98.856269
1645.276177,98.878691
1646.240583,98.885818
1647.204989,98.856122
1648.169395,98.836305
1649.133800,98.832567
1650.098206,98.819112
1651.062612,98.813253
1652.027018,98.852038
1652.991423,98.887008
1653.955829,98.855056
1654.920235,98.809555
1655.884640,98.791099
1656.849046,98.787003
1657.813452,98.786967
1658.777858,98.798212
1659.742263,98.807212
1660.706669,98.797494
1661.671075,98.803892
1662.635481,98.826337
1663.599886,98.826681
1664.564292,98.816901
1665.528698,98.813059
1666.493104,98.816582
1667.457509,98.831750
1668.421915,98.850222
1669.386321,98.853228
1670.350726,98.838516
1671.315132,98.835504
1672.279538,98.841307
1673.243944,98.831334
1674.208349,98.838694
1675.172755,98.865520
1676.137161,98.860903
1677.101567,98.847679
1678.065972,98.855168
1679.030378,98.861174
1679.994784,98.857291
1680.959189,98.853293
1681.923595,98.856730
1682.888001,98.879139
1683.852407,98.922437
1684.816812,98.928277
1685.781218,98.879553
1686.745624,98.870162
1687.710030,98.900469
1688.674435,98.900219
1689.638841,98.887530
1690.603247,98.886945
1691.567653,98.884255
1692.532058,98.884191
1693.496464,98.890978
1694.460870,98.924905
1695.425275,98.976949
1696.389681,98.968065
1697.354087,98.916074
1698.318493,98.909779
1699.282898,98.955087
1700.247304,98.985167
1701.211710,98.953826
1702.176116,98.914863
1703.140521,98.906429
1704.104927,98.915339
1705.069333,98.928782
1706.033738,98.931750
1706.998144,98.929874
1707.962550,98.924024
1708.926956,98.913234
1709.891361,98.913620
1710.855767,98.912988
1711.820173,98.904845
1712.784579,98.903890
1713.748984,98.914833
1714.713390,98.915647
1715.677796,98.902719
1716.642202,98.922150
1717.606607,98.943028
1718.571013,98.911803
1719.535419,98.874181
1720.499824,98.857556
1721.464230,98.858324
1722.428636,98.860497
1723.393042,98.848704
1724.357447,98.844458
1725.321853,98.848276
1726.286259,98.841604
1727.250665,98.824898
1728.215070,98.811071
1729.179476,98.810053
1730.143882,98.809894
1731.108288,98.798473
1732.072693,98.796470
1733.037099,98.827531
1734.001505,98.850396
1734.965910,98.821314
1735.930316,98.789465
1736.894722,98.784524
1737.859128,98.780265
1738.823533,98.781007
1739.787939,98.793125
1740.752345,98.791521
1741.716751,98.785118
1742.681156,98.791836
1743.645562,98.802310
1744.609968,98.808127
1745.574373,98.805802
1746.538779,98.813869
1747.503185,98.836283
1748.467591,98.846832
1749.431996,98.852846
1750.396402,98.866419
1751.360808,98.863903
1752.325214,98.843936
1753.289619,98.847238
1754.254025,98.865702
1755.218431,98.868104
1756.182837,98.874430
1757.147242,98.888020
1758.111648,98.899460
1759.076054,98.907261
1760.040459,98.902271
1761.004865,98.898741
1761.969271,98.895399
1762.933677,98.892227
1763.898082,98.900043
1764.862488,98.895299
1765.826894,98.885681
1766.791300,98.898182
1767.755705,98.908163
1768.720111,98.900914
1769.684517,98.900206
1770.648922,98.911286
1771.613328,98.919922
1772.577734,98.911763
1773.542140,98.891671
1774.506545,98.884049
1775.470951,98.884154
1776.435357,98.869475
1777.399763,98.847307
1778.364168,98.838019
1779.328574,98.841082
1780.292980,98.840681
1781.257386,98.825200
1782.221791,98.803578
1783.186197,98.796447
1784.150603,98.800239
1785.115008,98.795431
1786.079414,98.782434
1787.043820,98.780861
1788.008226,98.788620
1788.972631,98.779370
1789.937037,98.762111
1790.901443,98.765580
1791.865849,98.776682
1792.830254,98.762989
1793.794660,98.741904
1794.759066,98.746008
1795.723471,98.752425
1796.687877,98.747391
1797.652283,98.748281
1798.616689,98.753617
1799.581094,98.756591
1800.545500,98.758838
1801.509906,98.771177
1802.474312,98.786172
1803.438717,98.786639
1804.403123,98.786065
1805.367529,98.796405
1806.331935,98.810734
1807.296340,98.819642
1808.260746,98.817995
1809.225152,98.809889
1810.189557,98.805952
1811.153963,98.814679
1812.118369,98.830316
1813.082775,98.840144
1814.047180,98.843297
1815.011586,98.851038
1815.975992,98.868815
1816.940398,98.874863
1817.904803,98.845287
1818.869209,98.809285
1819.833615,98.797389
1820.798021,98.794422
1821.762426,98.793153
1822.726832,98.793449
1823.691238,98.801977
1824.655643,98.821215
1825.620049,98.827925
1826.584455,98.825034
1827.548861,98.821977
1828.513266,98.811871
1829.477672,98.808251
1830.442078,98.814764
1831.406484,98.810025
1832.370889,98.807928
1833.335295,98.823097
1834.299701,98.823469
1835.264106,98.825845
1836.228512,98.846166
1837.192918,98.842141
1838.157324,98.827807
1839.121729,98.820772
1840.086135,98.806153
1841.050541,98.800406
1842.014947,98.812527
1842.979352,98.827327
1843.943758,98.831223
1844.908164,98.825269
1845.872570,98.814409
1846.836975,98.805208
1847.801381,98.805458
1848.765787,98.807815
1849.730192,98.803050
1850.694598,98.791888
1851.659004,98.784757
1852.623410,98.772179
1853.587815,98.752170
1854.552221,98.763575
1855.516627,98.780988
1856.481033,98.752620
1857.445438,98.734021
1858.409844,98.760178
1859.374250,98.769503
1860.338655,98.756087
1861.303061,98.760867
1862.267467,98.771028
1863.231873,98.758905
1864.196278,98.739193
1865.160684,98.740556
1866.125090,98.744136
1867.089496,98.744573
1868.053901,98.755436
1869.018307,98.738352
1869.982713,98.712680
1870.947119,98.725171
1871.911524,98.730257
1872.875930,98.719436
1873.840336,98.744923
1874.804741,98.773506
1875.769147,98.761612
1876.733553,98.757780
1877.697959,98.757956
1878.662364,98.738419
1879.626770,98.739355
1880.591176,98.726081
1881.555582,98.687132
1882.519987,98.684729
1883.484393,98.702111
1884.448799,98.714412
1885.413204,98.732870
1886.377610,98.748255
1887.342016,98.745518
1888.306422,98.731812
1889.270827,98.719351
1890.235233,98.699633
1891.199639,98.684971
1892.164045,98.688395
1893.128450,98.703387
1894.092856,98.721959
1895.057262,98.730082
1896.021668,98.741045
1896.986073,98.753369
1897.950479,98.751667
1898.914885,98.746272
1899.879290,98.735126
1900.843696,98.736046
1901.808102,98.755555
1902.772508,98.775730
1903.736913,98.801702
1904.701319,98.803576
1905.665725,98.777698
1906.630131,98.761342
1907.594536,98.728249
1908.558942,98.700082
1909.523348,98.727880
1910.487754,98.747650
1911.452159,98.749782
1912.416565,98.790209
1913.380971,98.817121
1914.345376,98.800151
1915.309782,98.782220
1916.274188,98.786578
1917.238594,98.809267
1918.202999,98.808386
1919.167405,98.782665
1920.131811,98.776137
1921.096217,98.785544
1922.060622,98.790871
1923.025028,98.784614
1923.989434,98.778196
1924.953839,98.779071
1925.918245,98.770505
1926.882651,98.763460
1927.847057,98.754938
1928.811462,98.723365
1929.775868,98.709983
1930.740274,98.721812
1931.704680,98.713619
1932.669085,98.702043
1933.633491,98.708090
1934.597897,98.721270
1935.562303,98.725291
1936.526708,98.714244
1937.491114,98.711880
1938.455520,98.700685
1939.419925,98.662814
1940.384331,98.644377
1941.348737,98.661787
1942.313143,98.688474
1943.277548,98.711925
1944.241954,98.705143
1945.206360,98.658916
1946.170766,98.651680
1947.135171,98.688815
1948.099577,98.694682
1949.063983,98.672264
1950.028388,98.619354
1950.992794,98.588309
1951.957200,98.631256
1952.921606,98.655540
1953.886011,98.634966
1954.850417,98.610409
1955.814823,98.613224
1956.779229,98.670563
1957.743634,98.729087
1958.708040,98.729630
1959.672446,98.657991
1960.636852,98.557445
1961.601257,98.491605
1962.565663,98.485709
1963.530069,98.535530
1964.494474,98.563452
1965.458880,98.537556
1966.423286,98.534292
1967.387692,98.534302
1968.352097,98.482583
1969.316503,98.448949
1970.280909,98.447293
1971.245315,98.448994
1972.209720,98.484190
1973.174126,98.521312
1974.138532,98.516168
1975.102938,98.442934
1976.067343,98.404733
1977.031749,98.443268
1977.996155,98.327435
1978.960560,98.185398
1979.924966,98.248572
1980.889372,98.317392
1981.853778,98.323557
1982.818183,98.373957
1983.782589,98.429426
1984.746995,98.445103
1985.711401,98.465180
1986.675806,98.480831
1987.640212,98.466433
1988.604618,98.489812
1989.569023,98.529716
1990.533429,98.517453
1991.497835,98.501425
1992.462241,98.505227
1993.426646,98.493750
1994.391052,98.493056
1995.355458,98.518999
1996.319864,98.551453
1997.284269,98.617959
1998.248675,98.643515
1999.213081,98.599003
2000.177487,98.617616
2001.141892,98.646787
2002.106298,98.620146
2003.070704,98.585910
2004.035109,98.554696
2004.999515,98.600659
2005.963921,98.644495
2006.928327,98.536467
2007.892732,98.410447
2008.857138,98.410269
2009.821544,98.483917
2010.785950,98.523309
2011.750355,98.509536
2012.714761,98.494891
2013.679167,98.486839
2014.643572,98.496541
2015.607978,98.512334
2016.572384,98.495547
2017.536790,98.461206
2018.501195,98.424362
2019.465601,98.420269
2020.430007,98.445574
2021.394413,98.423354
2022.358818,98.383426
2023.323224,98.397547
2024.287630,98.413968
2025.252036,98.404029
2026.216441,98.433835
2027.180847,98.456587
2028.145253,98.414835
2029.109658,98.370643
2030.074064,98.343590
2031.038470,98.353136
2032.002876,98.353164
2032.967281,98.301088
2033.931687,98.298290
2034.896093,98.278451
2035.860499,98.187073
2036.824904,98.165713
2037.789310,98.187675
2038.753716,98.192164
2039.718121,98.233301
2040.682527,98.266652
2041.646933,98.242437
2042.611339,98.200573
2043.575744,98.202786
2044.540150,98.260587
2045.504556,98.278578
2046.468962,98.270209
2047.433367,98.304572
2048.397773,98.300684
2049.362179,98.244474
2050.326585,98.203585
2051.290990,98.238865
2052.255396,98.348928
2053.219802,98.405977
2054.184207,98.381235
2055.148613,98.357314
2056.113019,98.349524
2057.077425,98.370120
2058.041830,98.437014
2059.006236,98.489135
2059.970642,98.488121
2060.935048,98.494419
2061.899453,98.508058
2062.863859,98.479493
2063.828265,98.437999
2064.792671,98.455482
2065.757076,98.515153
2066.721482,98.521038
2067.685888,98.503888
2068.650293,98.481268
2069.614699,98.415929
2070.579105,98.415887
2071.543511,98.455877
2072.507916,98.439661
2073.472322,98.447336
2074.436728,98.463261
2075.401134,98.460175
2076.365539,98.498211
2077.329945,98.507278
2078.294351,98.454077
2079.258756,98.442636
2080.223162,98.486128
2081.187568,98.491083
2082.151974,98.441707
2083.116379,98.433782
2084.080785,98.502521
2085.045191,98.550545
2086.009597,98.530332
2086.974002,98.512558
2087.938408,98.523324
2088.902814,98.549838
2089.867220,98.584905
2090.831625,98.586709
2091.796031,98.583503
2092.760437,98.623837
2093.724842,98.644780
2094.689248,98.603056
2095.653654,98.554518
2096.618060,98.528784
2097.582465,98.508203
2098.546871,98.513993
2099.511277,98.531939
2100.475683,98.508190
2101.440088,98.472379
2102.404494,98.483632
2103.368900,98.527094
2104.333305,98.530054
2105.297711,98.506102
2106.262117,98.529139
2107.226523,98.559175
2108.190928,98.534932
2109.155334,98.493247
2110.119740,98.504977
2111.084146,98.555176
2112.048551,98.574221
2113.012957,98.568212
2113.977363,98.550080
2114.941769,98.542282
2115.906174,98.580139
2116.870580,98.611340
2117.834986,98.611544
2118.799391,98.594955
2119.763797,98.574631
2120.728203,98.601279
2121.692609,98.640727
2122.657014,98.646243
2123.621420,98.652226
2124.585826,98.669985
2125.550232,98.688889
2126.514637,98.693542
2127.479043,98.687039
2128.443449,98.665733
2129.407854,98.645587
2130.372260,98.677131
2131.336666,98.697732
2132.301072,98.697663
2133.265477,98.719655
2134.229883,98.678213
2135.194289,98.601225
2136.158695,98.570583
2137.123100,98.566287
2138.087506,98.558856
2139.051912,98.522581
2140.016318,98.533585
2140.980723,98.588438
2141.945129,98.568682
2142.909535,98.533361
2143.873940,98.510840
2144.838346,98.466080
2145.802752,98.456767
2146.767158,98.450225
2147.731563,98.430729
2148.695969,98.448655
2149.660375,98.486752
2150.624781,98.489356
2151.589186,98.441095
2152.553592,98.429443
2153.517998,98.440187
2154.482404,98.431138
2155.446809,98.448621
2156.411215,98.431336
2157.375621,98.351406
2158.340026,98.156378
2159.304432,97.861077
2160.268838,97.713168
2161.233244,97.733040
2162.197649,97.797100
2163.162055,97.871065
2164.126461,97.905441
2165.090867,97.900314
2166.055272,97.903972
2167.019678,97.911600
2167.984084,97.893473
2168.948489,97.881274
2169.912895,97.930885
2170.877301,97.996823
2171.841707,98.033323
2172.806112,98.123318
2173.770518,98.177899
2174.734924,98.072559
2175.699330,98.014829
2176.663735,98.057221
2177.628141,98.069598
2178.592547,98.102216
2179.556953,98.142303
2180.521358,98.115844
2181.485764,98.037240
2182.450170,97.979580
2183.414575,97.983898
2184.378981,97.994562
2185.343387,98.009684
2186.307793,98.031843
2187.272198,98.003542
2188.236604,97.992335
2189.201010,98.035061
2190.165416,98.024228
2191.129821,97.981587
2192.094227,97.978814
2193.058633,97.991228
2194.023038,98.002498
2194.987444,98.006776
2195.951850,98.010113
2196.916256,97.997523
2197.880661,97.979449
2198.845067,97.993002
2199.809473,97.998025
2200.773879,97.986899
2201.738284,97.984297
2202.702690,98.000848
2203.667096,98.049028
2204.631502,98.083269
2205.595907,98.067962
2206.560313,98.021765
2207.524719,97.990949
2208.489124,98.016730
2209.453530,98.042377
2210.417936,98.006574
2211.382342,98.010764
2212.346747,98.075743
2213.311153,98.047495
2214.275559,97.979797
2215.239965,98.002083
2216.204370,98.016368
2217.168776,97.952567
2218.133182,97.907422
2219.097587,97.937472
2220.061993,97.979472
2221.026399,97.998814
2221.990805,98.002795
2222.955210,97.996323
2223.919616,97.986069
2224.884022,97.960517
2225.848428,97.973497
2226.812833,97.990833
2227.777239,97.916125
2228.741645,97.871941
2229.706051,97.930568
2230.670456,97.988395
2231.634862,97.986668
2232.599268,97.929967
2233.563673,97.879147
2234.528079,97.876522
2235.492485,97.901932
2236.456891,97.923359
2237.421296,97.925168
2238.385702,97.899794
2239.350108,97.859417
2240.314514,97.872516
2241.278919,97.915465
2242.243325,97.911184
2243.207731,97.893196
2244.172137,97.873356
2245.136542,97.854347
2246.100948,97.855064
2247.065354,97.827892
2248.029759,97.780008
2248.994165,97.754120
2249.958571,97.750362
2250.922977,97.797269
2251.887382,97.852254
2252.851788,97.814091
2253.816194,97.743501
2254.780600,97.703642
2255.745005,97.639773
2256.709411,97.612294
2257.673817,97.666960
2258.638222,97.695018
2259.602628,97.682793
2260.567034,97.688588
2261.531440,97.681087
2262.495845,97.652167
2263.460251,97.639593
2264.424657,97.625326
2265.389063,97.599499
2266.353468,97.584762
2267.317874,97.563581
2268.282280,97.527151
2269.246686,97.497330
2270.211091,97.474590
2271.175497,97.468540
2272.139903,97.482161
2273.104308,97.469720
2274.068714,97.433218
2275.033120,97.421293
2275.997526,97.411085
2276.961931,97.382567
2277.926337,97.376869
2278.890743,97.390679
2279.855149,97.376507
2280.819554,97.340047
2281.783960,97.324665
2282.748366,97.314241
2283.712771,97.269746
2284.677177,97.231918
2285.641583,97.242610
2286.605989,97.261165
2287.570394,97.269969
2288.534800,97.284910
2289.499206,97.276080
2290.463612,97.254913
2291.428017,97.250433
2292.392423,97.250206
2293.356829,97.276371
2294.321235,97.317115
2295.285640,97.336424
2296.250046,97.342181
2297.214452,97.329502
2298.178857,97.330546
2299.143263,97.362127
2300.107669,97.366599
2301.072075,97.353348
2302.036480,97.367248
2303.000886,97.390953
2303.965292,97.407969
2304.929698,97.428011
2305.894103,97.441873
2306.858509,97.436812
2307.822915,97.437136
2308.787320,97.460109
2309.751726,97.479574
2310.716132,97.480825
2311.680538,97.483094
2312.644943,97.488689
2313.609349,97.494477
2314.573755,97.517521
2315.538161,97.537305
2316.502566,97.531952
2317.466972,97.523119
2318.431378,97.518273
2319.395784,97.513641
2320.360189,97.501045
2321.324595,97.484625
2322.289001,97.485567
2323.253406,97.487975
2324.217812,97.510763
2325.182218,97.595583
2326.146624,97.690399
2327.111029,97.738454
2328.075435,97.763731
2329.039841,97.785352
2330.004247,97.784639
2330.968652,97.781336
2331.933058,97.795251
2332.897464,97.785511
2333.861870,97.760336
2334.826275,97.760002
2335.790681,97.762162
2336.755087,97.751041
2337.719492,97.738092
2338.683898,97.733255
2339.648304,97.734789
2340.612710,97.722750
2341.577115,97.702917
2342.541521,97.688310
2343.505927,97.666195
2344.470333,97.644656
2345.434738,97.639130
2346.399144,97.634107
2347.363550,97.623954
2348.327955,97.614291
2349.292361,97.603010
2350.256767,97.594876
2351.221173,97.583614
2352.185578,97.570070
2353.149984,97.566812
2354.114390,97.560113
2355.078796,97.549113
2356.043201,97.551984
2357.007607,97.559736
2357.972013,97.561683
2358.936419,97.559655
2359.900824,97.541261
2360.865230,97.517998
2361.829636,97.521858
2362.794041,97.532315
2363.758447,97.529221
2364.722853,97.527942
2365.687259,97.527082
2366.651664,97.527315
2367.616070,97.536036
2368.580476,97.546806
2369.544882,97.542710
2370.509287,97.526812
2371.473693,97.521709
2372.438099,97.512858
2373.402504,97.505190
2374.366910,97.525353
2375.331316,97.534463
2376.295722,97.522326
2377.260127,97.529373
2378.224533,97.541083
2379.188939,97.530068
2380.153345,97.514186
2381.117750,97.517331
2382.082156,97.524929
2383.046562,97.521549
2384.010968,97.527111
2384.975373,97.534561
2385.939779,97.527361
2386.904185,97.525803
2387.868590,97.530975
2388.832996,97.525645
2389.797402,97.515239
2390.761808,97.519047
2391.726213,97.533094
2392.690619,97.531561
2393.655025,97.519265
2394.619431,97.518795
2395.583836,97.532914
2396.548242,97.541837
2397.512648,97.527060
2398.477053,97.500023
2399.441459,97.491228
2400.405865,97.504199
2401.370271,97.492955
2402.334676,97.464585
2403.299082,97.468945
2404.263488,97.481363
2405.227894,97.485120
2406.192299,97.483729
2407.156705,97.470923
2408.121111,97.468712
2409.085517,97.466426
2410.049922,97.454001
2411.014328,97.447244
2411.978734,97.443496
2412.943139,97.451995
2413.907545,97.471336
2414.871951,97.474649
2415.836357,97.474213
2416.800762,97.494898
2417.765168,97.494335
2418.729574,97.468088
2419.693980,97.477888
2420.658385,97.507143
2421.622791,97.516060
2422.587197,97.508388
2423.551603,97.496802
2424.516008,97.496703
2425.480414,97.507197
2426.444820,97.512039
2427.409225,97.501030
2428.373631,97.500255
2429.338037,97.513645
2430.302443,97.518068
2431.266848,97.533678
2432.231254,97.560308
2433.195660,97.569390
2434.160066,97.544860
2435.124471,97.519829
2436.088877,97.544533
2437.053283,97.571241
2438.017688,97.561967
2438.982094,97.551099
2439.946500,97.545661
2440.910906,97.554011
2441.875311,97.582462
2442.839717,97.589435
2443.804123,97.563560
2444.768529,97.552972
2445.732934,97.564963
2446.697340,97.584272
2447.661746,97.597385
2448.626152,97.574019
2449.590557,97.565936
2450.554963,97.599449
2451.519369,97.605169
2452.483774,97.596958
2453.448180,97.609781
2454.412586,97.617867
2455.376992,97.609289
2456.341397,97.598329
2457.305803,97.623994
2458.270209,97.674859
2459.234615,97.682020
2460.199020,97.663196
2461.163426,97.682623
2462.127832,97.704178
2463.092237,97.679154
2464.056643,97.654797
2465.021049,97.668042
2465.985455,97.693757
2466.949860,97.699616
2467.914266,97.679526
2468.878672,97.679655
2469.843078,97.715802
2470.807483,97.743683
2471.771889,97.755268
2472.736295,97.749586
2473.700701,97.731175
2474.665106,97.730046
2475.629512,97.733764
2476.593918,97.739467
2477.558323,97.751484
2478.522729,97.745905
2479.487135,97.745370
2480.451541,97.752494
2481.415946,97.744084
2482.380352,97.749518
2483.344758,97.768206
2484.309164,97.781134
2485.273569,97.792365
2486.237975,97.784441
2487.202381,97.764276
2488.166786,97.767018
2489.131192,97.787308
2490.095598,97.793093
2491.060004,97.785616
2492.024409,97.784992
2492.988815,97.783020
2493.953221,97.777154
2494.917627,97.786275
2495.882032,97.793538
2496.846438,97.772751
2497.810844,97.758094
2498.775250,97.778239
2499.739655,97.802190
2500.704061,97.805163
2501.668467,97.796473
2502.632872,97.789309
2503.597278,97.785989
2504.561684,97.800726
2505.526090,97.825905
2506.490495,97.826334
2507.454901,97.806235
2508.419307,97.783861
2509.383713,97.783566
2510.348118,97.798497
2511.312524,97.799992
2512.276930,97.812170
2513.241336,97.820434
2514.205741,97.810804
2515.170147,97.810900
2516.134553,97.816150
2517.098958,97.821906
2518.063364,97.810117
2519.027770,97.795818
2519.992176,97.811112
2520.956581,97.820846
2521.920987,97.808587
2522.885393,97.802445
2523.849799,97.806075
2524.814204,97.794448
2525.778610,97.784968
2526.743016,97.802248
2527.707421,97.824472
2528.671827,97.838590
2529.636233,97.833429
2530.600639,97.824853
2531.565044,97.831231
2532.529450,97.839867
2533.493856,97.856765
2534.458262,97.864292
2535.422667,97.855311
2536.387073,97.841666
2537.351479,97.816320
2538.315885,97.808614
2539.280290,97.820394
2540.244696,97.823331
2541.209102,97.830792
2542.173507,97.838161
2543.137913,97.831960
2544.102319,97.827486
2545.066725,97.830510
2546.031130,97.835643
2546.995536,97.835889
2547.959942,97.822929
2548.924348,97.804637
2549.888753,97.811038
2550.853159,97.840313
2551.817565,97.840332
2552.781970,97.815527
2553.746376,97.815425
2554.710782,97.829590
2555.675188,97.835902
2556.639593,97.839251
2557.603999,97.833521
2558.568405,97.818478
2559.532811,97.827918
2560.497216,97.860799
2561.461622,97.853739
2562.426028,97.815277
2563.390434,97.807742
2564.354839,97.814825
2565.319245,97.810141
2566.283651,97.814094
2567.248056,97.820079
2568.212462,97.806355
2569.176868,97.791970
2570.141274,97.782402
2571.105679,97.772028
2572.070085,97.787035
2573.034491,97.798701
2573.998897,97.777044
2574.963302,97.763848
2575.927708,97.748482
2576.892114,97.714701
2577.856520,97.712132
2578.820925,97.736870
2579.785331,97.743330
2580.749737,97.737892
2581.714142,97.742656
2582.678548,97.749881
2583.642954,97.749120
2584.607360,97.738245
2585.571765,97.726542
2586.536171,97.728741
2587.500577,97.723414
2588.464983,97.701441
2589.429388,97.695342
2590.393794,97.699454
2591.358200,97.690041
2592.322605,97.676433
2593.287011,97.677600
2594.251417,97.689728
2595.215823,97.688440
2596.180228,97.683950
2597.144634,97.692102
2598.109040,97.697508
2599.073446,97.693431
2600.037851,97.680301
2601.002257,97.676654
2601.966663,97.677648
2602.931069,97.655272
2603.895474,97.640985
2604.859880,97.642458
2605.824286,97.632998
2606.788691,97.636810
2607.753097,97.657935
2608.717503,97.660334
2609.681909,97.648687
2610.646314,97.647410
2611.610720,97.633675
2612.575126,97.613205
2613.539532,97.622695
2614.503937,97.625748
2615.468343,97.616649
2616.432749,97.622507
2617.397154,97.607035
2618.361560,97.585583
2619.325966,97.591041
2620.290372,97.592851
2621.254777,97.591103
2622.219183,97.597572
2623.183589,97.603782
2624.147995,97.607967
2625.112400,97.605089
2626.076806,97.604261
2627.041212,97.609313
2628.005618,97.608741
2628.970023,97.605389
2629.934429,97.599424
2630.898835,97.595873
2631.863240,97.608384
2632.827646,97.619561
2633.792052,97.607174
2634.756458,97.597488
2635.720863,97.612449
2636.685269,97.621631
2637.649675,97.615489
2638.614081,97.612942
2639.578486,97.613256
2640.542892,97.620758
2641.507298,97.627300
2642.471703,97.617842
2643.436109,97.610995
2644.400515,97.618671
2645.364921,97.632373
2646.329326,97.630962
2647.293732,97.613172
2648.258138,97.617598
2649.222544,97.634142
2650.186949,97.629905
2651.151355,97.624060
2652.115761,97.626977
2653.080167,97.629099
2654.044572,97.633465
2655.008978,97.643381
2655.973384,97.654327
2656.937789,97.659430
2657.902195,97.660477
2658.866601,97.655638
2659.831007,97.638472
2660.795412,97.632716
2661.759818,97.649462
2662.724224,97.656314
2663.688630,97.659169
2664.653035,97.671601
2665.617441,97.674245
2666.581847,97.675933
2667.546253,97.682620
2668.510658,97.685309
2669.475064,97.680771
2670.439470,97.669786
2671.403875,97.663451
2672.368281,97.661186
2673.332687,97.661393
2674.297093,97.658769
2675.261498,97.657910
2676.225904,97.665048
2677.190310,97.648557
2678.154716,97.624986
2679.119121,97.635196
2680.083527,97.646881
2681.047933,97.643377
2682.012338,97.646524
2682.976744,97.644563
2683.941150,97.636736
2684.905556,97.639024
2685.869961,97.639325
2686.834367,97.641133
2687.798773,97.650288
2688.763179,97.647127
2689.727584,97.630946
2690.691990,97.616584
2691.656396,97.612359
2692.620802,97.615738
2693.585207,97.616115
2694.549613,97.608586
2695.514019,97.599483
2696.478424,97.594824
2697.442830,97.596086
2698.407236,97.600180
2699.371642,97.598908
2700.336047,97.597215
2701.300453,97.593392
2702.264859,97.588283
2703.229265,97.593888
2704.193670,97.591912
2705.158076,97.581818
2706.122482,97.582861
2707.086887,97.584735
2708.051293,97.578963
2709.015699,97.572830
2709.980105,97.573500
2710.944510,97.573152
2711.908916,97.567295
2712.873322,97.564833
2713.837728,97.564913
2714.802133,97.561564
2715.766539,97.550544
2716.730945,97.542641
2717.695351,97.549396
2718.659756,97.553892
2719.624162,97.549755
2720.588568,97.546391
2721.552973,97.535404
2722.517379,97.525396
2723.481785,97.529615
2724.446191,97.530697
2725.410596,97.526965
2726.375002,97.525432
2727.339408,97.531037
2728.303814,97.551051
2729.268219,97.556684
2730.232625,97.536476
2731.197031,97.527421
2732.161436,97.537057
2733.125842,97.534463
2734.090248,97.518788
2735.054654,97.511023
2736.019059,97.504375
2736.983465,97.498564
2737.947871,97.502837
2738.912277,97.511567
2739.876682,97.515520
2740.841088,97.503740
2741.805494,97.494928
2742.769900,97.498580
2743.734305,97.487337
2744.698711,97.477247
2745.663117,97.494254
2746.627522,97.513842
2747.591928,97.513513
2748.556334,97.495350
2749.520740,97.476675
2750.485145,97.477748
2751.449551,97.476134
2752.413957,97.453171
2753.378363,97.446608
2754.342768,97.461817
2755.307174,97.472228
2756.271580,97.470851
2757.235986,97.455587
2758.200391,97.447183
2759.164797,97.453965
2760.129203,97.461336
2761.093608,97.460272
2762.058014,97.449528
2763.022420,97.447175
2763.986826,97.447714
2764.951231,97.446800
2765.915637,97.450956
2766.880043,97.441116
2767.844449,97.434980
2768.808854,97.442487
2769.773260,97.442540
2770.737666,97.440274
2771.702071,97.428153
2772.666477,97.419271
2773.630883,97.432655
2774.595289,97.431169
2775.559694,97.414251
2776.524100,97.410551
2777.488506,97.407494
2778.452912,97.407272
2779.417317,97.413161
2780.381723,97.407385
2781.346129,97.401162
2782.310535,97.404938
2783.274940,97.411278
2784.239346,97.412171
2785.203752,97.399712
2786.168157,97.389445
2787.132563,97.389442
2788.096969,97.393092
2789.061375,97.402276
2790.025780,97.399579
2790.990186,97.385094
2791.954592,97.379690
2792.918998,97.376837
2793.883403,97.368907
2794.847809,97.353612
2795.812215,97.343827
2796.776620,97.354280
2797.741026,97.361258
2798.705432,97.356850
2799.669838,97.358395
2800.634243,97.363111
2801.598649,97.359671
2802.563055,97.354734
2803.527461,97.358420
2804.491866,97.345383
2805.456272,97.313651
2806.420678,97.308779
2807.385084,97.328130
2808.349489,97.334317
2809.313895,97.327595
2810.278301,97.323180
2811.242706,97.318099
2812.207112,97.311562
2813.171518,97.312845
2814.135924,97.321682
2815.100329,97.322891
2816.064735,97.306523
2817.029141,97.292676
2817.993547,97.299024
2818.957952,97.309371
2819.922358,97.306997
2820.886764,97.296016
2821.851169,97.281085
2822.815575,97.272970
2823.779981,97.288267
2824.744387,97.296039
2825.708792,97.275708
2826.673198,97.263010
2827.637604,97.259390
2828.602010,97.259564
2829.566415,97.269627
2830.530821,97.261218
2831.495227,97.236168
2832.459633,97.223520
2833.424038,97.219979
2834.388444,97.216840
2835.352850,97.218699
2836.317255,97.222715
2837.281661,97.220413
2838.246067,97.212075
2839.210473,97.203612
2840.174878,97.187966
2841.139284,97.159747
2842.103690,97.147827
2843.068096,97.153324
2844.032501,97.140311
2844.996907,97.118572
2845.961313,97.100450
2846.925719,97.079020
2847.890124,97.054145
2848.854530,97.016922
2849.818936,96.991413
2850.783341,96.986766
2851.747747,96.968861
2852.712153,96.949721
2853.676559,96.940083
2854.640964,96.923738
2855.605370,96.915160
2856.569776,96.917570
2857.534182,96.912592
2858.498587,96.909751
2859.462993,96.927093
2860.427399,96.950530
2861.391804,96.965393
2862.356210,96.972914
2863.320616,96.972446
2864.285022,96.982425
2865.249427,97.005679
2866.213833,97.021327
2867.178239,97.035259
2868.142645,97.042725
2869.107050,97.037388
2870.071456,97.037228
2871.035862,97.034799
2872.000268,97.030268
2872.964673,97.042434
2873.929079,97.051475
2874.893485,97.041237
2875.857890,97.037385
2876.822296,97.047814
2877.786702,97.048121
2878.751108,97.040527
2879.715513,97.034832
2880.679919,97.020345
2881.644325,97.015352
2882.608731,97.024370
2883.573136,97.022405
2884.537542,97.029680
2885.501948,97.049712
2886.466353,97.043177
2887.430759,97.027399
2888.395165,97.028176
2889.359571,97.013138
2890.323976,96.993780
2891.288382,97.005047
2892.252788,97.010183
2893.217194,96.991641
2894.181599,96.980173
2895.146005,96.974725
2896.110411,96.960601
2897.074817,96.948009
2898.039222,96.936589
2899.003628,96.920800
2899.968034,96.921609
2900.932439,96.922193
2901.896845,96.905463
2902.861251,96.904715
2903.825657,96.907404
2904.790062,96.883430
2905.754468,96.848968
2906.718874,96.827946
2907.683280,96.819811
2908.647685,96.809681
2909.612091,96.802279
2910.576497,96.798632
2911.540902,96.786519
2912.505308,96.771811
2913.469714,96.755925
2914.434120,96.724773
2915.398525,96.682259
2916.362931,96.648315
2917.327337,96.631770
2918.291743,96.610775
2919.256148,96.576751
2920.220554,96.562818
2921.184960,96.546112
2922.149366,96.508904
2923.113771,96.495448
2924.078177,96.490312
2925.042583,96.486966
2926.006988,96.491734
2926.971394,96.476212
2927.935800,96.472543
2928.900206,96.496763
2929.864611,96.513042
2930.829017,96.509797
2931.793423,96.497010
2932.757829,96.499089
2933.722234,96.524751
2934.686640,96.559609
2935.651046,96.583491
2936.615452,96.586916
2937.579857,96.594853
2938.544263,96.621129
2939.508669,96.644104
2940.473074,96.657794
2941.437480,96.669319
2942.401886,96.676682
2943.366292,96.679639
2944.330697,96.676918
2945.295103,96.684698
2946.259509,96.711821
2947.223915,96.715012
2948.188320,96.693114
2949.152726,96.692912
2950.117132,96.693516
2951.081537,96.688989
2952.045943,96.701687
2953.010349,96.690677
2953.974755,96.662336
2954.939160,96.651699
2955.903566,96.643315
2956.867972,96.636837
2957.832378,96.618244
2958.796783,96.582971
2959.761189,96.557954
2960.725595,96.541539
2961.690001,96.530820
2962.654406,96.528354
2963.618812,96.533576
2964.583218,96.543334
2965.547623,96.547208
2966.512029,96.548953
2967.476435,96.570095
2968.440841,96.620228
2969.405246,96.656962
2970.369652,96.661802
2971.334058,96.679514
2972.298464,96.705407
2973.262869,96.713418
2974.227275,96.716048
2975.191681,96.721193
2976.156086,96.737931
2977.120492,96.756086
2978.084898,96.756118
2979.049304,96.753054
2980.013709,96.756559
2980.978115,96.763209
2981.942521,96.766846
2982.906927,96.762947
2983.871332,96.768383
2984.835738,96.793113
2985.800144,96.818268
2986.764550,96.817471
2987.728955,96.798141
2988.693361,96.791004
2989.657767,96.795502
2990.622172,96.801231
2991.586578,96.806241
2992.550984,96.792776
2993.515390,96.778762
2994.479795,96.798491
2995.444201,96.819039
2996.408607,96.824547
2997.373013,96.828115
2998.337418,96.820032
2999.301824,96.820048
3000.266230,96.822006
3001.230635,96.814336
3002.195041,96.818156
3003.159447,96.811396
3004.123853,96.797127
3005.088258,96.805709
3006.052664,96.815978
3007.017070,96.805314
3007.981476,96.796394
3008.945881,96.805822
3009.910287,96.805511
3010.874693,96.794219
3011.839099,96.798318
3012.803504,96.814896
3013.767910,96.818902
3014.732316,96.801554
3015.696721,96.792360
3016.661127,96.790383
3017.625533,96.781491
3018.589939,96.779564
3019.554344,96.775380
3020.518750,96.770043
3021.483156,96.770840
3022.447562,96.769527
3023.411967,96.770413
3024.376373,96.775475
3025.340779,96.787389
3026.305185,96.785604
3027.269590,96.763092
3028.233996,96.763778
3029.198402,96.769985
3030.162807,96.753325
3031.127213,96.750261
3032.091619,96.759113
3033.056025,96.760120
3034.020430,96.741658
3034.984836,96.709076
3035.949242,96.712383
3036.913648,96.738575
3037.878053,96.745070
3038.842459,96.745466
3039.806865,96.751229
3040.771270,96.754462
3041.735676,96.736446
3042.700082,96.717435
3043.664488,96.726231
3044.628893,96.729437
3045.593299,96.717549
3046.557705,96.710508
3047.522111,96.715624
3048.486516,96.728755
3049.450922,96.720272
3050.415328,96.702292
3051.379734,96.705683
3052.344139,96.705360
3053.308545,96.689507
3054.272951,96.678642
3055.237356,96.677667
3056.201762,96.685144
3057.166168,96.688361
3058.130574,96.682879
3059.094979,96.694477
3060.059385,96.709844
3061.023791,96.698655
3061.988197,96.671606
3062.952602,96.648424
3063.917008,96.659204
3064.881414,96.684199
3065.845819,96.681137
3066.810225,96.684398
3067.774631,96.697030
3068.739037,96.688707
3069.703442,96.670825
3070.667848,96.657077
3071.632254,96.654715
3072.596660,96.653430
3073.561065,96.654302
3074.525471,96.659330
3075.489877,96.658683
3076.454283,96.664090
3077.418688,96.658259
3078.383094,96.633767
3079.347500,96.619578
3080.311905,96.620735
3081.276311,96.631621
3082.240717,96.641073
3083.205123,96.632899
3084.169528,96.607903
3085.133934,96.596221
3086.098340,96.606091
3087.062746,96.611645
3088.027151,96.611788
3088.991557,96.609937
3089.955963,96.612202
3090.920368,96.615807
3091.884774,96.615219
3092.849180,96.621056
3093.813586,96.611167
3094.777991,96.600336
3095.742397,96.611681
3096.706803,96.615430
3097.671209,96.619689
3098.635614,96.609969
3099.600020,96.577689
3100.564426,96.574247
3101.528832,96.584095
3102.493237,96.583081
3103.457643,96.580858
3104.422049,96.567298
3105.386454,96.563342
3106.350860,96.581937
3107.315266,96.590646
3108.279672,96.583030
3109.244077,96.583978
3110.208483,96.575777
3111.172889,96.546020
3112.137295,96.544440
3113.101700,96.562645
3114.066106,96.574043
3115.030512,96.586484
3115.994918,96.570501
3116.959323,96.552973
3117.923729,96.556108
3118.888135,96.540694
3119.852540,96.528089
3120.816946,96.531482
3121.781352,96.535467
3122.745758,96.533324
3123.710163,96.515807
3124.674569,96.508207
3125.638975,96.524512
3126.603381,96.552381
3127.567786,96.568195
3128.532192,96.553639
3129.496598,96.537523
3130.461003,96.528940
3131.425409,96.526144
3132.389815,96.544617
3133.354221,96.549832
3134.318626,96.529360
3135.283032,96.508361
3136.247438,96.492498
3137.211844,96.495139
3138.176249,96.504466
3139.140655,96.509908
3140.105061,96.507864
3141.069467,96.493118
3142.033872,96.497996
3142.998278,96.502275
3143.962684,96.494215
3144.927089,96.502595
3145.891495,96.496099
3146.855901,96.480030
3147.820307,96.478380
3148.784712,96.477767
3149.749118,96.483950
3150.713524,96.498002
3151.677930,96.499971
3152.642335,96.480467
3153.606741,96.468020
3154.571147,96.465351
3155.535552,96.464770
3156.499958,96.476115
3157.464364,96.468318
3158.428770,96.464100
3159.393175,96.480103
3160.357581,96.460911
3161.321987,96.428231
3162.286393,96.413502
3163.250798,96.402432
3164.215204,96.397556
3165.179610,96.403688
3166.144016,96.425569
3167.108421,96.444849
3168.072827,96.445813
3169.037233,96.442531
3170.001638,96.447874
3170.966044,96.464309
3171.930450,96.472412
3172.894856,96.465198
3173.859261,96.454068
3174.823667,96.438912
3175.788073,96.424813
3176.752479,96.415491
3177.716884,96.402830
3178.681290,96.392130
3179.645696,96.410546
3180.610102,96.430173
3181.574507,96.408307
3182.538913,96.387200
3183.503319,96.382520
3184.467724,96.384586
3185.432130,96.398736
3186.396536,96.402017
3187.360942,96.415835
3188.325347,96.439149
3189.289753,96.422535
3190.254159,96.386309
3191.218565,96.383112
3192.182970,96.400834
3193.147376,96.382923
3194.111782,96.353224
3195.076187,96.350559
3196.040593,96.352927
3197.004999,96.373758
3197.969405,96.393621
3198.933810,96.379135
3199.898216,96.367556
3200.862622,96.357882
3201.827028,96.343618
3202.791433,96.348000
3203.755839,96.344319
3204.720245,96.333468
3205.684651,96.352746
3206.649056,96.383157
3207.613462,96.385564
3208.577868,96.348476
3209.542273,96.306999
3210.506679,96.293027
3211.471085,96.284543
3212.435491,96.267591
3213.399896,96.261392
3214.364302,96.297977
3215.328708,96.347650
3216.293114,96.347748
3217.257519,96.324983
3218.221925,96.303273
3219.186331,96.278753
3220.150736,96.277542
3221.115142,96.297181
3222.079548,96.318065
3223.043954,96.322019
3224.008359,96.308796
3224.972765,96.299745
3225.937171,96.301753
3226.901577,96.311689
3227.865982,96.308527
3228.830388,96.293345
3229.794794,96.289279
3230.759200,96.287717
3231.723605,96.292641
3232.688011,96.309295
3233.652417,96.312157
3234.616822,96.290418
3235.581228,96.263822
3236.545634,96.262855
3237.510040,96.279969
3238.474445,96.282223
3239.438851,96.271866
3240.403257,96.269758
3241.367663,96.278244
3242.332068,96.272544
3243.296474,96.255044
3244.260880,96.257039
3245.225285,96.261887
3246.189691,96.246409
3247.154097,96.222908
3248.118503,96.217596
3249.082908,96.231061
3250.047314,96.235300
3251.011720,96.243155
3251.976126,96.240758
3252.940531,96.209598
3253.904937,96.202422
3254.869343,96.211527
3255.833749,96.214572
3256.798154,96.218918
3257.762560,96.206108
3258.726966,96.199068
3259.691371,96.199095
3260.655777,96.184945
3261.620183,96.173043
3262.584589,96.166480
3263.548994,96.170582
3264.513400,96.179580
3265.477806,96.189933
3266.442212,96.205349
3267.406617,96.197858
3268.371023,96.188113
3269.335429,96.207603
3270.299835,96.211860
3271.264240,96.193940
3272.228646,96.201844
3273.193052,96.200656
3274.157457,96.155994
3275.121863,96.138717
3276.086269,96.164934
3277.050675,96.186619
3278.015080,96.178410
3278.979486,96.140298
3279.943892,96.133754
3280.908298,96.146912
3281.872703,96.125320
3282.837109,96.113621
3283.801515,96.116771
3284.765920,96.126962
3285.730326,96.154507
3286.694732,96.146133
3287.659138,96.109820
3288.623543,96.117764
3289.587949,96.148384
3290.552355,96.135345
3291.516761,96.120194
3292.481166,96.134828
3293.445572,96.131234
3294.409978,96.121978
3295.374384,96.115717
3296.338789,96.103525
3297.303195,96.106315
3298.267601,96.112171
3299.232006,96.101632
3300.196412,96.074588
3301.160818,96.070817
3302.125224,96.098005
3303.089629,96.104837
3304.054035,96.103548
3305.018441,96.095625
3305.982847,96.056445
3306.947252,96.055963
3307.911658,96.113710
3308.876064,96.128843
3309.840469,96.091849
3310.804875,96.071157
3311.769281,96.059975
3312.733687,96.040554
3313.698092,96.042469
3314.662498,96.079226
3315.626904,96.102721
3316.591310,96.082528
3317.555715,96.053269
3318.520121,96.018531
3319.484527,95.987370
3320.448933,96.014728
3321.413338,96.083514
3322.377744,96.119550
3323.342150,96.098906
3324.306555,96.056191
3325.270961,96.044313
3326.235367,96.064173
3327.199773,96.061151
3328.164178,96.047463
3329.128584,96.068771
3330.092990,96.074844
3331.057396,96.040493
3332.021801,96.039538
3332.986207,96.066456
3333.950613,96.045281
3334.915018,96.000173
3335.879424,96.000458
3336.843830,96.022897
3337.808236,96.013176
3338.772641,95.998255
3339.737047,96.000684
3340.701453,96.005432
3341.665859,96.021131
3342.630264,96.021954
3343.594670,96.019664
3344.559076,96.052437
3345.523482,96.074175
3346.487887,96.076419
3347.452293,96.065391
3348.416699,96.031520
3349.381104,96.017930
3350.345510,96.017378
3351.309916,96.018157
3352.274322,96.051598
3353.238727,96.061446
3354.203133,96.014008
3355.167539,95.992615
3356.131945,96.005159
3357.096350,96.011591
3358.060756,96.010869
3359.025162,95.984129
3359.989568,95.985047
3360.953973,96.019941
3361.918379,95.997197
3362.882785,95.965638
3363.847190,95.987333
3364.811596,96.014434
3365.776002,96.019622
3366.740408,96.002603
3367.704813,95.980631
3368.669219,95.994483
3369.633625,96.035819
3370.598031,96.042407
3371.562436,96.022404
3372.526842,96.008415
3373.491248,95.989182
3374.455653,95.991494
3375.420059,95.985353
3376.384465,95.958208
3377.348871,95.991051
3378.313276,96.006972
3379.277682,95.965509
3380.242088,95.971036
3381.206494,95.968541
3382.170899,95.937293
3383.135305,95.943511
3384.099711,95.961950
3385.064117,95.997725
3386.028522,96.006709
3386.992928,95.955263
3387.957334,95.935593
3388.921739,95.961754
3389.886145,95.984133
3390.850551,95.967543
3391.814957,95.931849
3392.779362,95.951477
3393.743768,95.974290
3394.708174,95.932064
3395.672580,95.906247
3396.636985,95.939860
3397.601391,95.985625
3398.565797,96.011163
3399.530202,95.987186
3400.494608,95.946516
3401.459014,95.947431
3402.423420,95.954767
3403.387825,95.944963
3404.352231,95.934199
3405.316637,95.918360
3406.281043,95.900615
3407.245448,95.893643
3408.209854,95.913169
3409.174260,95.938901
3410.138666,95.922263
3411.103071,95.870301
3412.067477,95.852484
3413.031883,95.880700
3413.996288,95.899280
3414.960694,95.918216
3415.925100,95.951201
3416.889506,95.968059
3417.853911,95.960484
3418.818317,95.937047
3419.782723,95.934376
3420.747129,95.945279
3421.711534,95.925087
3422.675940,95.907534
3423.640346,95.927554
3424.604751,95.947008
3425.569157,95.933377
3426.533563,95.898936
3427.497969,95.873439
3428.462374,95.878232
3429.426780,95.896837
3430.391186,95.906078
3431.355592,95.906458
3432.319997,95.909669
3433.284403,95.926234
3434.248809,95.918223
3435.213215,95.874799
3436.177620,95.849355
3437.142026,95.846266
3438.106432,95.850275
3439.070837,95.860542
3440.035243,95.864233
3440.999649,95.850176
3441.964055,95.824638
3442.928460,95.824183
3443.892866,95.868736
3444.857272,95.916962
3445.821678,95.909415
3446.786083,95.879776
3447.750489,95.887969
3448.714895,95.897229
3449.679301,95.902245
3450.643706,95.904116
3451.608112,95.885084
3452.572518,95.900783
3453.536923,95.908361
3454.501329,95.864565
3455.465735,95.867563
3456.430141,95.895330
3457.394546,95.867723
3458.358952,95.837977
3459.323358,95.861288
3460.287764,95.896530
3461.252169,95.890598
3462.216575,95.874260
3463.180981,95.867385
3464.145386,95.852096
3465.109792,95.870562
3466.074198,95.915745
3467.038604,95.920539
3468.003009,95.890297
3468.967415,95.850300
3469.931821,95.829381
3470.896227,95.858035
3471.860632,95.879117
3472.825038,95.864125
3473.789444,95.867824
3474.753850,95.878028
3475.718255,95.882465
3476.682661,95.903884
3477.647067,95.901050
3478.611472,95.875053
3479.575878,95.874046
3480.540284,95.865588
3481.504690,95.836394
3482.469095,95.831872
3483.433501,95.823248
3484.397907,95.797383
3485.362313,95.807254
3486.326718,95.833218
3487.291124,95.848566
3488.255530,95.845972
3489.219935,95.809952
3490.184341,95.788518
3491.148747,95.810839
3492.113153,95.842793
3493.077558,95.839748
3494.041964,95.812922
3495.006370,95.809291
3495.970776,95.804079
3496.935181,95.798880
3497.899587,95.817147
3498.863993,95.830097
3499.828399,95.842173
3500.792804,95.841965
3501.757210,95.819854
3502.721616,95.801102
3503.686021,95.792992
3504.650427,95.819237
3505.614833,95.849192
3506.579239,95.838525
3507.543644,95.828303
3508.508050,95.826533
3509.472456,95.818140
3510.436862,95.820529
3511.401267,95.827035
3512.365673,95.822984
3513.330079,95.820352
3514.294484,95.835467
3515.258890,95.841614
3516.223296,95.813723
3517.187702,95.777768
3518.152107,95.751251
3519.116513,95.736530
3520.080919,95.746042
3521.045325,95.781562
3522.009730,95.808028
3522.974136,95.803706
3523.938542,95.818316
3524.902948,95.845777
3525.867353,95.822267
3526.831759,95.794536
3527.796165,95.796974
3528.760570,95.788131
3529.724976,95.783660
3530.689382,95.790326
3531.653788,95.806494
3532.618193,95.821325
3533.582599,95.787952
3534.547005,95.763519
3535.511411,95.795352
3536.475816,95.811457
3537.440222,95.783983
3538.404628,95.771543
3539.369034,95.790572
3540.333439,95.799609
3541.297845,95.820073
3542.262251,95.826773
3543.226656,95.778523
3544.191062,95.765617
3545.155468,95.797982
3546.119874,95.815708
3547.084279,95.816354
3548.048685,95.816071
3549.013091,95.831927
3549.977497,95.842094
3550.941902,95.839500
3551.906308,95.825388
3552.870714,95.809974
3553.835119,95.805601
3554.799525,95.779718
3555.763931,95.766974
3556.728337,95.783490
3557.692742,95.778099
3558.657148,95.783273
3559.621554,95.802200
3560.585960,95.784857
3561.550365,95.780751
3562.514771,95.794484
3563.479177,95.760378
3564.443583,95.747474
3565.407988,95.798797
3566.372394,95.841147
3567.336800,95.847253
3568.301205,95.817841
3569.265611,95.796081
3570.230017,95.806420
3571.194423,95.797955
3572.158828,95.781495
3573.123234,95.791901
3574.087640,95.800914
3575.052046,95.784099
3576.016451,95.777361
3576.980857,95.805743
3577.945263,95.825792
3578.909668,95.812752
3579.874074,95.798765
3580.838480,95.808872
3581.802886,95.810444
3582.767291,95.779615
3583.731697,95.770172
3584.696103,95.813813
3585.660509,95.841747
3586.624914,95.810534
3587.589320,95.806914
3588.553726,95.832872
3589.518132,95.799802
3590.482537,95.764962
3591.446943,95.754151
3592.411349,95.750401
3593.375754,95.781358
3594.340160,95.796651
3595.304566,95.812440
3596.268972,95.832505
3597.233377,95.801178
3598.197783,95.767353
3599.162189,95.739111
3600.126595,95.739027
3601.091000,95.773512
3602.055406,95.745713
3603.019812,95.700806
3603.984217,95.721524
3604.948623,95.761131
3605.913029,95.764296
3606.877435,95.767536
3607.841840,95.818215
3608.806246,95.849294
3609.770652,95.839837
3610.735058,95.839642
3611.699463,95.841546
3612.663869,95.835306
3613.628275,95.826070
3614.592681,95.827068
3615.557086,95.823689
3616.521492,95.817453
3617.485898,95.838495
3618.450303,95.853402
3619.414709,95.854013
3620.379115,95.852447
3621.343521,95.823629
3622.307926,95.778091
3623.272332,95.755546
3624.236738,95.781997
3625.201144,95.814447
3626.165549,95.791206
3627.129955,95.768159
3628.094361,95.821459
3629.058767,95.868079
3630.023172,95.832996
3630.987578,95.790075
3631.951984,95.771675
3632.916389,95.761783
3633.880795,95.742906
3634.845201,95.723083
3635.809607,95.752221
3636.774012,95.781871
3637.738418,95.776370
3638.702824,95.788257
3639.667230,95.813259
3640.631635,95.816193
3641.596041,95.794255
3642.560447,95.788872
3643.524852,95.793103
3644.489258,95.765833
3645.453664,95.760256
3646.418070,95.800454
3647.382475,95.841718
3648.346881,95.870041
3649.311287,95.874646
3650.275693,95.852025
3651.240098,95.817728
3652.204504,95.788105
3653.168910,95.787605
3654.133316,95.815134
3655.097721,95.806711
3656.062127,95.744030
3657.026533,95.737850
3657.990938,95.790087
3658.955344,95.787861
3659.919750,95.768196
3660.884156,95.759567
3661.848561,95.731237
3662.812967,95.750895
3663.777373,95.805216
3664.741779,95.801105
3665.706184,95.756194
3666.670590,95.744032
3667.634996,95.779948
3668.599401,95.803352
3669.563807,95.794347
3670.528213,95.814775
3671.492619,95.842775
3672.457024,95.823624
3673.421430,95.826465
3674.385836,95.857413
3675.350242,95.842955
3676.314647,95.804042
3677.279053,95.772626
3678.243459,95.789398
3679.207865,95.832981
3680.172270,95.819825
3681.136676,95.810454
3682.101082,95.810933
3683.065487,95.768413
3684.029893,95.744901
3684.994299,95.751938
3685.958705,95.772670
3686.923110,95.790469
3687.887516,95.785445
3688.851922,95.778645
3689.816328,95.764363
3690.780733,95.764409
3691.745139,95.778329
3692.709545,95.782265
3693.673951,95.787907
3694.638356,95.762837
3695.602762,95.739915
3696.567168,95.757437
3697.531573,95.772025
3698.495979,95.794310
3699.460385,95.791305
3700.424791,95.740424
3701.389196,95.732238
3702.353602,95.763276
3703.318008,95.773805
3704.282414,95.785378
3705.246819,95.805617
3706.211225,95.803461
3707.175631,95.768105
3708.140036,95.745129
3709.104442,95.771990
3710.068848,95.805929
3711.033254,95.849132
3711.997659,95.904505
3712.962065,95.884045
3713.926471,95.820597
3714.890877,95.796156
3715.855282,95.786212
3716.819688,95.772563
3717.784094,95.752908
3718.748500,95.734171
3719.712905,95.734595
3720.677311,95.753003
3721.641717,95.775867
3722.606122,95.775258
3723.570528,95.766794
3724.534934,95.766017
3725.499340,95.754403
3726.463745,95.771293
3727.428151,95.799881
3728.392557,95.794402
3729.356963,95.813678
3730.321368,95.825769
3731.285774,95.788810
3732.250180,95.776065
3733.214585,95.769258
3734.178991,95.758620
3735.143397,95.779660
3736.107803,95.793364
3737.072208,95.795183
3738.036614,95.785782
3739.001020,95.733853
3739.965426,95.661947
3740.929831,95.655008
3741.894237,95.719776
3742.858643,95.754051
3743.823049,95.781922
3744.787454,95.820990
3745.751860,95.746330
3746.716266,95.646010
3747.680671,95.675083
3748.645077,95.747608
3749.609483,95.754674
3750.573889,95.742077
3751.538294,95.768053
3752.502700,95.808649
3753.467106,95.792099
3754.431512,95.743142
3755.395917,95.746022
3756.360323,95.768558
3757.324729,95.768736
3758.289134,95.770852
3759.253540,95.759163
3760.217946,95.736283
3761.182352,95.734618
3762.146757,95.734514
3763.111163,95.717756
3764.075569,95.726120
3765.039975,95.755379
3766.004380,95.758304
3766.968786,95.771329
3767.933192,95.780473
3768.897598,95.742466
3769.862003,95.726505
3770.826409,95.743758
3771.790815,95.747292
3772.755220,95.742070
3773.719626,95.752291
3774.684032,95.777069
3775.648438,95.771842
3776.612843,95.755004
3777.577249,95.758975
3778.541655,95.762147
3779.506061,95.772457
3780.470466,95.773241
3781.434872,95.760252
3782.399278,95.748189
3783.363684,95.715557
3784.328089,95.713762
3785.292495,95.737279
3786.256901,95.714567
3787.221306,95.718843
3788.185712,95.751938
3789.150118,95.737670
3790.114524,95.734142
3791.078929,95.743418
3792.043335,95.733545
3793.007741,95.740759
3793.972147,95.745166
3794.936552,95.744211
3795.900958,95.755486
3796.865364,95.745992
3797.829769,95.717834
3798.794175,95.708799
3799.758581,95.742439
3800.722987,95.791528
3801.687392,95.788811
3802.651798,95.762171
3803.616204,95.767488
3804.580610,95.767042
3805.545015,95.790088
3806.509421,95.833146
3807.473827,95.775386
3808.438233,95.696186
3809.402638,95.706454
3810.367044,95.726549
3811.331450,95.723779
3812.295855,95.729608
3813.260261,95.758011
3814.224667,95.784682
3815.189073,95.777510
3816.153478,95.776193
3817.117884,95.792249
3818.082290,95.789560
3819.046696,95.762736
3820.011101,95.748221
3820.975507,95.784646
3821.939913,95.812462
3822.904318,95.790330
3823.868724,95.763559
3824.833130,95.756723
3825.797536,95.788708
3826.761941,95.805883
3827.726347,95.771233
3828.690753,95.763260
3829.655159,95.766277
3830.619564,95.750469
3831.583970,95.751744
3832.548376,95.744824
3833.512782,95.738432
3834.477187,95.765079
3835.441593,95.792968
3836.405999,95.793173
3837.370404,95.787403
3838.334810,95.795061
3839.299216,95.805859
3840.263622,95.810191
3841.228027,95.786203
3842.192433,95.762457
3843.156839,95.782088
3844.121245,95.803821
3845.085650,95.802916
3846.050056,95.794768
3847.014462,95.781552
3847.978867,95.757409
3848.943273,95.739801
3849.907679,95.758147
3850.872085,95.799219
3851.836490,95.834418
3852.800896,95.835881
3853.765302,95.834322
3854.729708,95.847580
3855.694113,95.810091
3856.658519,95.769495
3857.622925,95.779186
3858.587331,95.808516
3859.551736,95.846650
3860.516142,95.842579
3861.480548,95.802816
3862.444953,95.777651
3863.409359,95.772799
3864.373765,95.808992
3865.338171,95.805199
3866.302576,95.753504
3867.266982,95.767132
3868.231388,95.793929
3869.195794,95.807345
3870.160199,95.838916
3871.124605,95.828453
3872.089011,95.789929
3873.053417,95.768263
3874.017822,95.773723
3874.982228,95.815857
3875.946634,95.826611
3876.911039,95.799308
3877.875445,95.846732
3878.839851,95.909387
3879.804257,95.871383
3880.768662,95.821204
3881.733068,95.820215
3882.697474,95.813136
3883.661880,95.776583
3884.626285,95.774852
3885.590691,95.835287
3886.555097,95.848872
3887.519502,95.817174
3888.483908,95.824157
3889.448314,95.823622
3890.412720,95.789507
3891.377125,95.792372
3892.341531,95.824521
3893.305937,95.795936
3894.270343,95.761094
3895.234748,95.801116
3896.199154,95.826221
3897.163560,95.815888
3898.127966,95.849381
3899.092371,95.883869
3900.056777,95.878985
3901.021183,95.881174
3901.985588,95.870290
3902.949994,95.840767
3903.914400,95.840092
3904.878806,95.853307
3905.843211,95.863983
3906.807617,95.875035
3907.772023,95.872966
3908.736429,95.855002
3909.700834,95.843702
3910.665240,95.848873
3911.629646,95.858777
3912.594051,95.867585
3913.558457,95.862516
3914.522863,95.868705
3915.487269,95.888208
3916.451674,95.875958
3917.416080,95.866562
3918.380486,95.895720
3919.344892,95.923698
3920.309297,95.917212
3921.273703,95.890719
3922.238109,95.860333
3923.202515,95.845030
3924.166920,95.863804
3925.131326,95.866420
3926.095732,95.838102
3927.060137,95.819682
3928.024543,95.822417
3928.988949,95.865153
3929.953355,95.919113
3930.917760,95.905219
3931.882166,95.862170
3932.846572,95.894542
3933.810978,95.940830
3934.775383,95.929124
3935.739789,95.917071
3936.704195,95.917356
3937.668600,95.920436
3938.633006,95.908248
3939.597412,95.882302
3940.561818,95.894059
3941.526223,95.924627
3942.490629,95.936079
3943.455035,95.934940
3944.419441,95.958071
3945.383846,95.973361
3946.348252,95.926278
3947.312658,95.896748
3948.277064,95.895732
3949.241469,95.860975
3950.205875,95.831339
3951.170281,95.847331
3952.134686,95.879821
3953.099092,95.876346
3954.063498,95.875447
3955.027904,95.906959
3955.992309,95.916497
3956.956715,95.914395
3957.921121,95.910027
3958.885527,95.911250
3959.849932,95.929630
3960.814338,95.919496
3961.778744,95.915413
3962.743150,95.923102
3963.707555,95.898144
3964.671961,95.913175
3965.636367,95.946612
3966.600772,95.928126
3967.565178,95.927682
3968.529584,95.943771
3969.493990,95.945206
3970.458395,95.969099
3971.422801,95.977557
3972.387207,95.955941
3973.351613,95.959423
3974.316018,95.987846
3975.280424,96.013564
3976.244830,96.020539
3977.209235,96.009461
3978.173641,96.002424
3979.138047,95.993651
3980.102453,95.970207
3981.066858,95.968054
3982.031264,95.996083
3982.995670,95.998330
3983.960076,95.956902
3984.924481,95.928748
3985.888887,95.941229
3986.853293,95.940929
3987.817699,95.928453
3988.782104,95.945000
3989.746510,95.968162
3990.710916,95.981285
3991.675321,95.961802
3992.639727,95.945907
3993.604133,96.006115
3994.568539,96.052735
3995.532944,96.030898
3996.497350,96.016653
3997.461756,96.013676
3998.426162,96.013507
3999.390567,96.027011
4000.354973,96.009926
